# Random transverse-field Ising model
# L=22, J=1=gamma, W_J=0.2, W=1.5
# High-T dynamical energy conductivity sigma^E(omega); via MCLM
# omega/J sigma^E(omega)

0.000000 1.037947
0.000500 1.038239
0.001000 1.039086
0.001500 1.040406
0.002000 1.042070
0.002500 1.043925
0.003000 1.045811
0.003500 1.047575
0.004000 1.049085
0.004500 1.050243
0.005000 1.050980
0.005500 1.051262
0.006000 1.051089
0.006500 1.050494
0.007000 1.049544
0.007500 1.048342
0.008000 1.047020
0.008500 1.045738
0.009000 1.044664
0.009500 1.043957
0.010000 1.043753
0.010500 1.044142
0.011000 1.045158
0.011500 1.046772
0.012000 1.048898
0.012500 1.051399
0.013000 1.054108
0.013500 1.056843
0.014000 1.059424
0.014500 1.061696
0.015000 1.063531
0.015500 1.064842
0.016000 1.065580
0.016500 1.065746
0.017000 1.065382
0.017500 1.064578
0.018000 1.063465
0.018500 1.062209
0.019000 1.060998
0.019500 1.060024
0.020000 1.059457
0.020500 1.059432
0.021000 1.060026
0.021500 1.061254
0.022000 1.063058
0.022500 1.065324
0.023000 1.067891
0.023500 1.070568
0.024000 1.073160
0.024500 1.075486
0.025000 1.077388
0.025500 1.078750
0.026000 1.079497
0.026500 1.079599
0.027000 1.079072
0.027500 1.077979
0.028000 1.076428
0.028500 1.074569
0.029000 1.072581
0.029500 1.070663
0.030000 1.069013
0.030500 1.067807
0.031000 1.067179
0.031500 1.067204
0.032000 1.067893
0.032500 1.069189
0.033000 1.070978
0.033500 1.073102
0.034000 1.075383
0.034500 1.077638
0.035000 1.079701
0.035500 1.081431
0.036000 1.082729
0.036500 1.083532
0.037000 1.083819
0.037500 1.083611
0.038000 1.082969
0.038500 1.081992
0.039000 1.080816
0.039500 1.079604
0.040000 1.078533
0.040500 1.077778
0.041000 1.077489
0.041500 1.077773
0.042000 1.078682
0.042500 1.080203
0.043000 1.082260
0.043500 1.084723
0.044000 1.087427
0.044500 1.090187
0.045000 1.092819
0.045500 1.095158
0.046000 1.097071
0.046500 1.098459
0.047000 1.099265
0.047500 1.099474
0.048000 1.099111
0.048500 1.098247
0.049000 1.096992
0.049500 1.095496
0.050000 1.093937
0.050500 1.092504
0.051000 1.091382
0.051500 1.090727
0.052000 1.090649
0.052500 1.091195
0.053000 1.092344
0.053500 1.094012
0.054000 1.096056
0.054500 1.098301
0.055000 1.100550
0.055500 1.102615
0.056000 1.104326
0.056500 1.105550
0.057000 1.106195
0.057500 1.106217
0.058000 1.105618
0.058500 1.104452
0.059000 1.102819
0.059500 1.100862
0.060000 1.098761
0.060500 1.096719
0.061000 1.094940
0.061500 1.093614
0.062000 1.092891
0.062500 1.092866
0.063000 1.093568
0.063500 1.094956
0.064000 1.096928
0.064500 1.099330
0.065000 1.101981
0.065500 1.104689
0.066000 1.107272
0.066500 1.109573
0.067000 1.111468
0.067500 1.112874
0.068000 1.113746
0.068500 1.114082
0.069000 1.113921
0.069500 1.113342
0.070000 1.112466
0.070500 1.111450
0.071000 1.110472
0.071500 1.109718
0.072000 1.109360
0.072500 1.109538
0.073000 1.110337
0.073500 1.111777
0.074000 1.113811
0.074500 1.116331
0.075000 1.119179
0.075500 1.122168
0.076000 1.125101
0.076500 1.127797
0.077000 1.130101
0.077500 1.131894
0.078000 1.133104
0.078500 1.133701
0.079000 1.133703
0.079500 1.133171
0.080000 1.132209
0.080500 1.130959
0.081000 1.129593
0.081500 1.128299
0.082000 1.127263
0.082500 1.126645
0.083000 1.126564
0.083500 1.127082
0.084000 1.128191
0.084500 1.129820
0.085000 1.131842
0.085500 1.134092
0.086000 1.136383
0.086500 1.138533
0.087000 1.140377
0.087500 1.141780
0.088000 1.142648
0.088500 1.142926
0.089000 1.142605
0.089500 1.141717
0.090000 1.140340
0.090500 1.138597
0.091000 1.136647
0.091500 1.134683
0.092000 1.132909
0.092500 1.131521
0.093000 1.130688
0.093500 1.130528
0.094000 1.131096
0.094500 1.132373
0.095000 1.134271
0.095500 1.136642
0.096000 1.139299
0.096500 1.142032
0.097000 1.144636
0.097500 1.146927
0.098000 1.148756
0.098500 1.150019
0.099000 1.150658
0.099500 1.150667
0.100000 1.150088
0.100500 1.149014
0.101000 1.147579
0.101500 1.145957
0.102000 1.144347
0.102500 1.142956
0.103000 1.141978
0.103500 1.141569
0.104000 1.141832
0.104500 1.142803
0.105000 1.144446
0.105500 1.146656
0.106000 1.149276
0.106500 1.152115
0.107000 1.154970
0.107500 1.157649
0.108000 1.159988
0.108500 1.161862
0.109000 1.163192
0.109500 1.163949
0.110000 1.164150
0.110500 1.163860
0.111000 1.163187
0.111500 1.162277
0.112000 1.161311
0.112500 1.160484
0.113000 1.159993
0.113500 1.160012
0.114000 1.160673
0.114500 1.162048
0.115000 1.164138
0.115500 1.166875
0.116000 1.170124
0.116500 1.173701
0.117000 1.177399
0.117500 1.181002
0.118000 1.184313
0.118500 1.187169
0.119000 1.189448
0.119500 1.191076
0.120000 1.192028
0.120500 1.192325
0.121000 1.192036
0.121500 1.191275
0.122000 1.190199
0.122500 1.188995
0.123000 1.187871
0.123500 1.187038
0.124000 1.186682
0.124500 1.186949
0.125000 1.187925
0.125500 1.189628
0.126000 1.192005
0.126500 1.194941
0.127000 1.198279
0.127500 1.201833
0.128000 1.205416
0.128500 1.208854
0.129000 1.212001
0.129500 1.214743
0.130000 1.217007
0.130500 1.218755
0.131000 1.219992
0.131500 1.220762
0.132000 1.221151
0.132500 1.221287
0.133000 1.221332
0.133500 1.221471
0.134000 1.221888
0.134500 1.222749
0.135000 1.224174
0.135500 1.226221
0.136000 1.228874
0.136500 1.232045
0.137000 1.235580
0.137500 1.239280
0.138000 1.242920
0.138500 1.246280
0.139000 1.249162
0.139500 1.251406
0.140000 1.252903
0.140500 1.253599
0.141000 1.253497
0.141500 1.252652
0.142000 1.251175
0.142500 1.249225
0.143000 1.247004
0.143500 1.244740
0.144000 1.242667
0.144500 1.241007
0.145000 1.239942
0.145500 1.239591
0.146000 1.240000
0.146500 1.241136
0.147000 1.242888
0.147500 1.245087
0.148000 1.247523
0.148500 1.249973
0.149000 1.252222
0.149500 1.254087
0.150000 1.255426
0.150500 1.256150
0.151000 1.256224
0.151500 1.255666
0.152000 1.254550
0.152500 1.252999
0.153000 1.251180
0.153500 1.249297
0.154000 1.247573
0.154500 1.246227
0.155000 1.245457
0.155500 1.245407
0.156000 1.246159
0.156500 1.247714
0.157000 1.249992
0.157500 1.252844
0.158000 1.256066
0.158500 1.259423
0.159000 1.262678
0.159500 1.265611
0.160000 1.268040
0.160500 1.269830
0.161000 1.270901
0.161500 1.271229
0.162000 1.270843
0.162500 1.269824
0.163000 1.268302
0.163500 1.266452
0.164000 1.264483
0.164500 1.262625
0.165000 1.261104
0.165500 1.260121
0.166000 1.259828
0.166500 1.260311
0.167000 1.261578
0.167500 1.263556
0.168000 1.266106
0.168500 1.269034
0.169000 1.272118
0.169500 1.275131
0.170000 1.277862
0.170500 1.280132
0.171000 1.281808
0.171500 1.282803
0.172000 1.283084
0.172500 1.282669
0.173000 1.281628
0.173500 1.280083
0.174000 1.278203
0.174500 1.276192
0.175000 1.274275
0.175500 1.272673
0.176000 1.271577
0.176500 1.271131
0.177000 1.271407
0.177500 1.272400
0.178000 1.274032
0.178500 1.276158
0.179000 1.278588
0.179500 1.281110
0.180000 1.283514
0.180500 1.285608
0.181000 1.287240
0.181500 1.288300
0.182000 1.288728
0.182500 1.288515
0.183000 1.287706
0.183500 1.286399
0.184000 1.284739
0.184500 1.282914
0.185000 1.281140
0.185500 1.279638
0.186000 1.278611
0.186500 1.278218
0.187000 1.278556
0.187500 1.279643
0.188000 1.281414
0.188500 1.283732
0.189000 1.286401
0.189500 1.289194
0.190000 1.291877
0.190500 1.294237
0.191000 1.296098
0.191500 1.297339
0.192000 1.297890
0.192500 1.297741
0.193000 1.296932
0.193500 1.295550
0.194000 1.293727
0.194500 1.291632
0.195000 1.289464
0.195500 1.287437
0.196000 1.285763
0.196500 1.284630
0.197000 1.284179
0.197500 1.284484
0.198000 1.285546
0.198500 1.287286
0.199000 1.289553
0.199500 1.292148
0.200000 1.294840
0.200500 1.297258
0.201000 1.299179
0.201500 1.300503
0.202000 1.301188
0.202500 1.301248
0.203000 1.300745
0.203500 1.299778
0.204000 1.298478
0.204500 1.296995
0.205000 1.295485
0.205500 1.294102
0.206000 1.292982
0.206500 1.292230
0.207000 1.291914
0.207500 1.292061
0.208000 1.292657
0.208500 1.293650
0.209000 1.294964
0.209500 1.296505
0.210000 1.298175
0.210500 1.299880
0.211000 1.301538
0.211500 1.303087
0.212000 1.304485
0.212500 1.305710
0.213000 1.306760
0.213500 1.307651
0.214000 1.308414
0.214500 1.309091
0.215000 1.309731
0.215500 1.310385
0.216000 1.311101
0.216500 1.311919
0.217000 1.312871
0.217500 1.313972
0.218000 1.315222
0.218500 1.316606
0.219000 1.318098
0.219500 1.319657
0.220000 1.321240
0.220500 1.322799
0.221000 1.324291
0.221500 1.325675
0.222000 1.326920
0.222500 1.328005
0.223000 1.328920
0.223500 1.329666
0.224000 1.330253
0.224500 1.330700
0.225000 1.331032
0.225500 1.331278
0.226000 1.331468
0.226500 1.331633
0.227000 1.331798
0.227500 1.331984
0.228000 1.332205
0.228500 1.332472
0.229000 1.332784
0.229500 1.333140
0.230000 1.333531
0.230500 1.333947
0.231000 1.334375
0.231500 1.334804
0.232000 1.335224
0.232500 1.335627
0.233000 1.336009
0.233500 1.336369
0.234000 1.336708
0.234500 1.337031
0.235000 1.337347
0.235500 1.337665
0.236000 1.337993
0.236500 1.338340
0.237000 1.338716
0.237500 1.339126
0.238000 1.339573
0.238500 1.340060
0.239000 1.340584
0.239500 1.341141
0.240000 1.341727
0.240500 1.342334
0.241000 1.342954
0.241500 1.343581
0.242000 1.344207
0.242500 1.344826
0.243000 1.345436
0.243500 1.346033
0.244000 1.346617
0.244500 1.347190
0.245000 1.347754
0.245500 1.348315
0.246000 1.348875
0.246500 1.349440
0.247000 1.350014
0.247500 1.350600
0.248000 1.351202
0.248500 1.351821
0.249000 1.352456
0.249500 1.353107
0.250000 1.353771
0.250500 1.354443
0.251000 1.355121
0.251500 1.355799
0.252000 1.356474
0.252500 1.357141
0.253000 1.357796
0.253500 1.358436
0.254000 1.359060
0.254500 1.359667
0.255000 1.360256
0.255500 1.360827
0.256000 1.361382
0.256500 1.361922
0.257000 1.362448
0.257500 1.362962
0.258000 1.363465
0.258500 1.363958
0.259000 1.364442
0.259500 1.364917
0.260000 1.365383
0.260500 1.365838
0.261000 1.366283
0.261500 1.366717
0.262000 1.367138
0.262500 1.367546
0.263000 1.367940
0.263500 1.368320
0.264000 1.368687
0.264500 1.369041
0.265000 1.369382
0.265500 1.369713
0.266000 1.370034
0.266500 1.370347
0.267000 1.370654
0.267500 1.370958
0.268000 1.371259
0.268500 1.371558
0.269000 1.371859
0.269500 1.372160
0.270000 1.372464
0.270500 1.372771
0.271000 1.373080
0.271500 1.373393
0.272000 1.373710
0.272500 1.374029
0.273000 1.374352
0.273500 1.374678
0.274000 1.375007
0.274500 1.375340
0.275000 1.375675
0.275500 1.376014
0.276000 1.376357
0.276500 1.376704
0.277000 1.377054
0.277500 1.377410
0.278000 1.377770
0.278500 1.378135
0.279000 1.378506
0.279500 1.378881
0.280000 1.379261
0.280500 1.379646
0.281000 1.380036
0.281500 1.380429
0.282000 1.380826
0.282500 1.381226
0.283000 1.381629
0.283500 1.382034
0.284000 1.382440
0.284500 1.382848
0.285000 1.383256
0.285500 1.383665
0.286000 1.384074
0.286500 1.384482
0.287000 1.384891
0.287500 1.385298
0.288000 1.385704
0.288500 1.386110
0.289000 1.386513
0.289500 1.386915
0.290000 1.387315
0.290500 1.387712
0.291000 1.388106
0.291500 1.388496
0.292000 1.388883
0.292500 1.389265
0.293000 1.389643
0.293500 1.390016
0.294000 1.390383
0.294500 1.390745
0.295000 1.391101
0.295500 1.391452
0.296000 1.391796
0.296500 1.392135
0.297000 1.392468
0.297500 1.392796
0.298000 1.393118
0.298500 1.393435
0.299000 1.393747
0.299500 1.394054
0.300000 1.394357
0.300500 1.394656
0.301000 1.394951
0.301500 1.395243
0.302000 1.395531
0.302500 1.395816
0.303000 1.396099
0.303500 1.396378
0.304000 1.396655
0.304500 1.396930
0.305000 1.397203
0.305500 1.397475
0.306000 1.397744
0.306500 1.398012
0.307000 1.398279
0.307500 1.398545
0.308000 1.398810
0.308500 1.399074
0.309000 1.399338
0.309500 1.399601
0.310000 1.399865
0.310500 1.400128
0.311000 1.400391
0.311500 1.400655
0.312000 1.400920
0.312500 1.401185
0.313000 1.401450
0.313500 1.401717
0.314000 1.401984
0.314500 1.402253
0.315000 1.402524
0.315500 1.402796
0.316000 1.403070
0.316500 1.403345
0.317000 1.403624
0.317500 1.403904
0.318000 1.404187
0.318500 1.404473
0.319000 1.404762
0.319500 1.405055
0.320000 1.405351
0.320500 1.405650
0.321000 1.405954
0.321500 1.406261
0.322000 1.406572
0.322500 1.406888
0.323000 1.407208
0.323500 1.407533
0.324000 1.407862
0.324500 1.408195
0.325000 1.408534
0.325500 1.408876
0.326000 1.409224
0.326500 1.409576
0.327000 1.409932
0.327500 1.410294
0.328000 1.410659
0.328500 1.411029
0.329000 1.411403
0.329500 1.411781
0.330000 1.412163
0.330500 1.412549
0.331000 1.412939
0.331500 1.413332
0.332000 1.413729
0.332500 1.414129
0.333000 1.414532
0.333500 1.414938
0.334000 1.415347
0.334500 1.415758
0.335000 1.416171
0.335500 1.416586
0.336000 1.417004
0.336500 1.417423
0.337000 1.417844
0.337500 1.418266
0.338000 1.418689
0.338500 1.419114
0.339000 1.419540
0.339500 1.419966
0.340000 1.420394
0.340500 1.420822
0.341000 1.421250
0.341500 1.421680
0.342000 1.422109
0.342500 1.422539
0.343000 1.422969
0.343500 1.423400
0.344000 1.423831
0.344500 1.424262
0.345000 1.424693
0.345500 1.425124
0.346000 1.425555
0.346500 1.425986
0.347000 1.426418
0.347500 1.426849
0.348000 1.427280
0.348500 1.427712
0.349000 1.428143
0.349500 1.428575
0.350000 1.429006
0.350500 1.429438
0.351000 1.429869
0.351500 1.430300
0.352000 1.430732
0.352500 1.431163
0.353000 1.431594
0.353500 1.432025
0.354000 1.432456
0.354500 1.432887
0.355000 1.433318
0.355500 1.433748
0.356000 1.434179
0.356500 1.434608
0.357000 1.435038
0.357500 1.435467
0.358000 1.435896
0.358500 1.436324
0.359000 1.436752
0.359500 1.437179
0.360000 1.437605
0.360500 1.438031
0.361000 1.438455
0.361500 1.438879
0.362000 1.439303
0.362500 1.439725
0.363000 1.440146
0.363500 1.440566
0.364000 1.440985
0.364500 1.441403
0.365000 1.441819
0.365500 1.442235
0.366000 1.442649
0.366500 1.443061
0.367000 1.443473
0.367500 1.443883
0.368000 1.444291
0.368500 1.444698
0.369000 1.445103
0.369500 1.445507
0.370000 1.445910
0.370500 1.446311
0.371000 1.446710
0.371500 1.447108
0.372000 1.447504
0.372500 1.447898
0.373000 1.448292
0.373500 1.448683
0.374000 1.449073
0.374500 1.449462
0.375000 1.449850
0.375500 1.450235
0.376000 1.450620
0.376500 1.451004
0.377000 1.451386
0.377500 1.451767
0.378000 1.452147
0.378500 1.452526
0.379000 1.452904
0.379500 1.453281
0.380000 1.453657
0.380500 1.454033
0.381000 1.454408
0.381500 1.454782
0.382000 1.455156
0.382500 1.455530
0.383000 1.455903
0.383500 1.456276
0.384000 1.456649
0.384500 1.457021
0.385000 1.457394
0.385500 1.457766
0.386000 1.458139
0.386500 1.458512
0.387000 1.458885
0.387500 1.459259
0.388000 1.459633
0.388500 1.460007
0.389000 1.460381
0.389500 1.460756
0.390000 1.461131
0.390500 1.461507
0.391000 1.461884
0.391500 1.462261
0.392000 1.462638
0.392500 1.463016
0.393000 1.463394
0.393500 1.463773
0.394000 1.464152
0.394500 1.464532
0.395000 1.464912
0.395500 1.465293
0.396000 1.465674
0.396500 1.466055
0.397000 1.466436
0.397500 1.466818
0.398000 1.467200
0.398500 1.467582
0.399000 1.467964
0.399500 1.468346
0.400000 1.468728
0.400500 1.469110
0.401000 1.469491
0.401500 1.469873
0.402000 1.470254
0.402500 1.470635
0.403000 1.471016
0.403500 1.471396
0.404000 1.471776
0.404500 1.472155
0.405000 1.472534
0.405500 1.472912
0.406000 1.473289
0.406500 1.473666
0.407000 1.474042
0.407500 1.474417
0.408000 1.474791
0.408500 1.475164
0.409000 1.475537
0.409500 1.475908
0.410000 1.476279
0.410500 1.476648
0.411000 1.477017
0.411500 1.477384
0.412000 1.477750
0.412500 1.478115
0.413000 1.478479
0.413500 1.478842
0.414000 1.479204
0.414500 1.479564
0.415000 1.479923
0.415500 1.480281
0.416000 1.480637
0.416500 1.480993
0.417000 1.481347
0.417500 1.481699
0.418000 1.482050
0.418500 1.482400
0.419000 1.482748
0.419500 1.483095
0.420000 1.483441
0.420500 1.483785
0.421000 1.484127
0.421500 1.484468
0.422000 1.484807
0.422500 1.485145
0.423000 1.485481
0.423500 1.485816
0.424000 1.486149
0.424500 1.486480
0.425000 1.486810
0.425500 1.487138
0.426000 1.487464
0.426500 1.487789
0.427000 1.488111
0.427500 1.488432
0.428000 1.488751
0.428500 1.489068
0.429000 1.489384
0.429500 1.489697
0.430000 1.490009
0.430500 1.490319
0.431000 1.490626
0.431500 1.490932
0.432000 1.491236
0.432500 1.491538
0.433000 1.491838
0.433500 1.492136
0.434000 1.492432
0.434500 1.492726
0.435000 1.493018
0.435500 1.493308
0.436000 1.493596
0.436500 1.493882
0.437000 1.494166
0.437500 1.494448
0.438000 1.494728
0.438500 1.495005
0.439000 1.495281
0.439500 1.495555
0.440000 1.495826
0.440500 1.496096
0.441000 1.496364
0.441500 1.496629
0.442000 1.496893
0.442500 1.497154
0.443000 1.497414
0.443500 1.497671
0.444000 1.497927
0.444500 1.498180
0.445000 1.498432
0.445500 1.498681
0.446000 1.498929
0.446500 1.499175
0.447000 1.499418
0.447500 1.499660
0.448000 1.499900
0.448500 1.500137
0.449000 1.500373
0.449500 1.500607
0.450000 1.500839
0.450500 1.501069
0.451000 1.501297
0.451500 1.501524
0.452000 1.501748
0.452500 1.501971
0.453000 1.502191
0.453500 1.502410
0.454000 1.502627
0.454500 1.502842
0.455000 1.503055
0.455500 1.503266
0.456000 1.503476
0.456500 1.503683
0.457000 1.503889
0.457500 1.504092
0.458000 1.504294
0.458500 1.504494
0.459000 1.504692
0.459500 1.504888
0.460000 1.505083
0.460500 1.505275
0.461000 1.505466
0.461500 1.505654
0.462000 1.505841
0.462500 1.506026
0.463000 1.506208
0.463500 1.506389
0.464000 1.506568
0.464500 1.506745
0.465000 1.506920
0.465500 1.507093
0.466000 1.507264
0.466500 1.507433
0.467000 1.507600
0.467500 1.507765
0.468000 1.507928
0.468500 1.508088
0.469000 1.508247
0.469500 1.508403
0.470000 1.508558
0.470500 1.508710
0.471000 1.508860
0.471500 1.509007
0.472000 1.509153
0.472500 1.509296
0.473000 1.509437
0.473500 1.509576
0.474000 1.509713
0.474500 1.509847
0.475000 1.509979
0.475500 1.510108
0.476000 1.510235
0.476500 1.510360
0.477000 1.510482
0.477500 1.510602
0.478000 1.510720
0.478500 1.510835
0.479000 1.510947
0.479500 1.511058
0.480000 1.511165
0.480500 1.511271
0.481000 1.511373
0.481500 1.511474
0.482000 1.511571
0.482500 1.511667
0.483000 1.511759
0.483500 1.511850
0.484000 1.511938
0.484500 1.512023
0.485000 1.512106
0.485500 1.512186
0.486000 1.512264
0.486500 1.512339
0.487000 1.512412
0.487500 1.512483
0.488000 1.512551
0.488500 1.512617
0.489000 1.512680
0.489500 1.512742
0.490000 1.512800
0.490500 1.512857
0.491000 1.512911
0.491500 1.512963
0.492000 1.513012
0.492500 1.513060
0.493000 1.513105
0.493500 1.513148
0.494000 1.513189
0.494500 1.513228
0.495000 1.513265
0.495500 1.513300
0.496000 1.513333
0.496500 1.513364
0.497000 1.513393
0.497500 1.513420
0.498000 1.513446
0.498500 1.513469
0.499000 1.513491
0.499500 1.513511
0.500000 1.513530
0.509900 1.515027
0.519800 1.516025
0.529700 1.516693
0.539600 1.517046
0.549500 1.517062
0.559400 1.516818
0.569300 1.516469
0.579200 1.516172
0.589100 1.516033
0.599000 1.516073
0.608900 1.516230
0.618800 1.516387
0.628700 1.516385
0.638600 1.516068
0.648500 1.515360
0.658400 1.514275
0.668300 1.512854
0.678200 1.511137
0.688100 1.509171
0.698000 1.507021
0.707900 1.504741
0.717800 1.502335
0.727700 1.499763
0.737600 1.496982
0.747500 1.493979
0.757400 1.490778
0.767300 1.487464
0.777200 1.484194
0.787100 1.481156
0.797000 1.478505
0.806900 1.476298
0.816800 1.474501
0.826700 1.473019
0.836600 1.471717
0.846500 1.470424
0.856400 1.468952
0.866300 1.467123
0.876200 1.464809
0.886100 1.461959
0.896000 1.458622
0.905900 1.454957
0.915800 1.451225
0.925700 1.447695
0.935600 1.444508
0.945500 1.441640
0.955400 1.438994
0.965300 1.436485
0.975200 1.434062
0.985100 1.431698
0.995000 1.429349
1.004900 1.426929
1.014800 1.424355
1.024700 1.421639
1.034600 1.418912
1.044500 1.416324
1.054400 1.413893
1.064300 1.411484
1.074200 1.408925
1.084100 1.406120
1.094000 1.403121
1.103900 1.400124
1.113800 1.397335
1.123700 1.394841
1.133600 1.392575
1.143500 1.390375
1.153400 1.388089
1.163300 1.385697
1.173200 1.383339
1.183100 1.381216
1.193000 1.379458
1.202900 1.378044
1.212800 1.376870
1.222700 1.375900
1.232600 1.375186
1.242500 1.374710
1.252400 1.374308
1.262300 1.373759
1.272200 1.372905
1.282100 1.371705
1.292000 1.370224
1.301900 1.368587
1.311800 1.366884
1.321700 1.365146
1.331600 1.363414
1.341500 1.361790
1.351400 1.360361
1.361300 1.359086
1.371200 1.357781
1.381100 1.356244
1.391000 1.354388
1.400900 1.352271
1.410800 1.350016
1.420700 1.347706
1.430600 1.345343
1.440500 1.342868
1.450400 1.340224
1.460300 1.337384
1.470200 1.334318
1.480100 1.330984
1.490000 1.327377
1.499900 1.323578
1.509800 1.319755
1.519700 1.316110
1.529600 1.312805
1.539500 1.309886
1.549400 1.307271
1.559300 1.304827
1.569200 1.302431
1.579100 1.299976
1.589000 1.297338
1.598900 1.294357
1.608800 1.290862
1.618700 1.286746
1.628600 1.282034
1.638500 1.276889
1.648400 1.271532
1.658300 1.266179
1.668200 1.261000
1.678100 1.256112
1.688000 1.251590
1.697900 1.247504
1.707800 1.243953
1.717700 1.241014
1.727600 1.238668
1.737500 1.236757
1.747400 1.235022
1.757300 1.233200
1.767200 1.231172
1.777100 1.229024
1.787000 1.226957
1.796900 1.225100
1.806800 1.223446
1.816700 1.221930
1.826600 1.220484
1.836500 1.219003
1.846400 1.217312
1.856300 1.215223
1.866200 1.212615
1.876100 1.209472
1.886000 1.205832
1.895900 1.201726
1.905800 1.197180
1.915700 1.192269
1.925600 1.187118
1.935500 1.181837
1.945400 1.176474
1.955300 1.171030
1.965200 1.165518
1.975100 1.159969
1.985000 1.154406
1.994900 1.148813
2.004800 1.143126
2.014700 1.137229
2.024600 1.131006
2.034500 1.124442
2.044400 1.117641
2.054300 1.110734
2.064200 1.103800
2.074100 1.096879
2.084000 1.090060
2.093900 1.083509
2.103800 1.077366
2.113700 1.071611
2.123600 1.066084
2.133500 1.060621
2.143400 1.055106
2.153300 1.049417
2.163200 1.043418
2.173100 1.037042
2.183000 1.030354
2.192900 1.023486
2.202800 1.016549
2.212700 1.009607
2.222600 1.002717
2.232500 0.995947
2.242400 0.989339
2.252300 0.982853
2.262200 0.976391
2.272100 0.969881
2.282000 0.963318
2.291900 0.956714
2.301800 0.950033
2.311700 0.943203
2.321600 0.936231
2.331500 0.929240
2.341400 0.922363
2.351300 0.915631
2.361200 0.908978
2.371100 0.902323
2.381000 0.895591
2.390900 0.888694
2.400800 0.881568
2.410700 0.874237
2.420600 0.866834
2.430500 0.859530
2.440400 0.852432
2.450300 0.845538
2.460200 0.838769
2.470100 0.832038
2.480000 0.825285
2.489900 0.818499
2.499800 0.811735
2.509700 0.805093
2.519600 0.798660
2.529500 0.792476
2.539400 0.786544
2.549300 0.780850
2.559200 0.775368
2.569100 0.770066
2.579000 0.764888
2.588900 0.759781
2.598800 0.754731
2.608700 0.749775
2.618600 0.744960
2.628500 0.740294
2.638400 0.735748
2.648300 0.731268
2.658200 0.726808
2.668100 0.722373
2.678000 0.718006
2.687900 0.713734
2.697800 0.709533
2.707700 0.705336
2.717600 0.701066
2.727500 0.696683
2.737400 0.692218
2.747300 0.687757
2.757200 0.683397
2.767100 0.679217
2.777000 0.675274
2.786900 0.671595
2.796800 0.668173
2.806700 0.664963
2.816600 0.661895
2.826500 0.658871
2.836400 0.655778
2.846300 0.652527
2.856200 0.649101
2.866100 0.645548
2.876000 0.641933
2.885900 0.638311
2.895800 0.634731
2.905700 0.631241
2.915600 0.627875
2.925500 0.624650
2.935400 0.621581
2.945300 0.618696
2.955200 0.616023
2.965100 0.613568
2.975000 0.611325
2.984900 0.609275
2.994800 0.607371
3.004700 0.605542
3.014600 0.603705
3.024500 0.601773
3.034400 0.599672
3.044300 0.597371
3.054200 0.594898
3.064100 0.592311
3.074000 0.589669
3.083900 0.587049
3.093800 0.584535
3.103700 0.582170
3.113600 0.579935
3.123500 0.577788
3.133400 0.575718
3.143300 0.573766
3.153200 0.572005
3.163100 0.570501
3.173000 0.569266
3.182900 0.568242
3.192800 0.567304
3.202700 0.566322
3.212600 0.565218
3.222500 0.563985
3.232400 0.562680
3.242300 0.561395
3.252200 0.560214
3.262100 0.559174
3.272000 0.558245
3.281900 0.557361
3.291800 0.556458
3.301700 0.555482
3.311600 0.554410
3.321500 0.553268
3.331400 0.552125
3.341300 0.551057
3.351200 0.550098
3.361100 0.549234
3.371000 0.548427
3.380900 0.547637
3.390800 0.546830
3.400700 0.546015
3.410600 0.545235
3.420500 0.544526
3.430400 0.543875
3.440300 0.543224
3.450200 0.542505
3.460100 0.541664
3.470000 0.540670
3.479900 0.539543
3.489800 0.538358
3.499700 0.537229
3.509600 0.536246
3.519500 0.535434
3.529400 0.534776
3.539300 0.534234
3.549200 0.533750
3.559100 0.533244
3.569000 0.532644
3.578900 0.531918
3.588800 0.531088
3.598700 0.530213
3.608600 0.529346
3.618500 0.528498
3.628400 0.527644
3.638300 0.526754
3.648200 0.525824
3.658100 0.524881
3.668000 0.523966
3.677900 0.523106
3.687800 0.522318
3.697700 0.521628
3.707600 0.521077
3.717500 0.520686
3.727400 0.520421
3.737300 0.520196
3.747200 0.519922
3.757100 0.519550
3.767000 0.519078
3.776900 0.518515
3.786800 0.517848
3.796700 0.517056
3.806600 0.516144
3.816500 0.515165
3.826400 0.514207
3.836300 0.513337
3.846200 0.512581
3.856100 0.511945
3.866000 0.511451
3.875900 0.511131
3.885800 0.510972
3.895700 0.510897
3.905600 0.510808
3.915500 0.510659
3.925400 0.510484
3.935300 0.510344
3.945200 0.510266
3.955100 0.510237
3.965000 0.510213
3.974900 0.510142
3.984800 0.509981
3.994700 0.509739
4.004600 0.509478
4.014500 0.509304
4.024400 0.509311
4.034300 0.509540
4.044200 0.509954
4.054100 0.510465
4.064000 0.510985
4.073900 0.511462
4.083800 0.511896
4.093700 0.512300
4.103600 0.512675
4.113500 0.513023
4.123400 0.513364
4.133300 0.513703
4.143200 0.514014
4.153100 0.514256
4.163000 0.514402
4.172900 0.514453
4.182800 0.514482
4.192700 0.514615
4.202600 0.514969
4.212500 0.515594
4.222400 0.516463
4.232300 0.517485
4.242200 0.518508
4.252100 0.519371
4.262000 0.519976
4.271900 0.520307
4.281800 0.520390
4.291700 0.520292
4.301600 0.520129
4.311500 0.520043
4.321400 0.520133
4.331300 0.520407
4.341200 0.520809
4.351100 0.521274
4.361000 0.521757
4.370900 0.522225
4.380800 0.522636
4.390700 0.522961
4.400600 0.523203
4.410500 0.523407
4.420400 0.523645
4.430300 0.523999
4.440200 0.524527
4.450100 0.525221
4.460000 0.526011
4.469900 0.526829
4.479800 0.527657
4.489700 0.528525
4.499600 0.529461
4.509500 0.530452
4.519400 0.531440
4.529300 0.532338
4.539200 0.533058
4.549100 0.533568
4.559000 0.533904
4.568900 0.534130
4.578800 0.534309
4.588700 0.534506
4.598600 0.534781
4.608500 0.535163
4.618400 0.535629
4.628300 0.536145
4.638200 0.536722
4.648100 0.537422
4.658000 0.538303
4.667900 0.539366
4.677800 0.540546
4.687700 0.541741
4.697600 0.542853
4.707500 0.543808
4.717400 0.544563
4.727300 0.545132
4.737200 0.545588
4.747100 0.546017
4.757000 0.546485
4.766900 0.547030
4.776800 0.547663
4.786700 0.548355
4.796600 0.549052
4.806500 0.549718
4.816400 0.550367
4.826300 0.551023
4.836200 0.551701
4.846100 0.552394
4.856000 0.553075
4.865900 0.553691
4.875800 0.554194
4.885700 0.554564
4.895600 0.554814
4.905500 0.554972
4.915400 0.555088
4.925300 0.555227
4.935200 0.555463
4.945100 0.555854
4.955000 0.556413
4.964900 0.557092
4.974800 0.557796
4.984700 0.558441
4.994600 0.558999
5.004500 0.559491
5.014400 0.559950
5.024300 0.560413
5.034200 0.560949
5.044100 0.561663
5.054000 0.562661
5.063900 0.563994
5.073800 0.565609
5.083700 0.567353
5.093600 0.569015
5.103500 0.570405
5.113400 0.571421
5.123300 0.572068
5.133200 0.572401
5.143100 0.572479
5.153000 0.572359
5.162900 0.572130
5.172800 0.571883
5.182700 0.571665
5.192600 0.571458
5.202500 0.571232
5.212400 0.571031
5.222300 0.570991
5.232200 0.571260
5.242100 0.571890
5.252000 0.572794
5.261900 0.573805
5.271800 0.574781
5.281700 0.575667
5.291600 0.576466
5.301500 0.577200
5.311400 0.577881
5.321300 0.578503
5.331200 0.579047
5.341100 0.579515
5.351000 0.579952
5.360900 0.580436
5.370800 0.581032
5.380700 0.581719
5.390600 0.582365
5.400500 0.582784
5.410400 0.582853
5.420300 0.582579
5.430200 0.582077
5.440100 0.581505
5.450000 0.581002
5.459900 0.580670
5.469800 0.580549
5.479700 0.580599
5.489600 0.580708
5.499500 0.580750
5.509400 0.580650
5.519300 0.580420
5.529200 0.580138
5.539100 0.579912
5.549000 0.579839
5.558900 0.579979
5.568800 0.580331
5.578700 0.580818
5.588600 0.581297
5.598500 0.581589
5.608400 0.581542
5.618300 0.581108
5.628200 0.580384
5.638100 0.579554
5.648000 0.578786
5.657900 0.578167
5.667800 0.577712
5.677700 0.577388
5.687600 0.577144
5.697500 0.576937
5.707400 0.576734
5.717300 0.576487
5.727200 0.576110
5.737100 0.575514
5.747000 0.574674
5.756900 0.573651
5.766800 0.572550
5.776700 0.571459
5.786600 0.570437
5.796500 0.569504
5.806400 0.568646
5.816300 0.567848
5.826200 0.567119
5.836100 0.566477
5.846000 0.565906
5.855900 0.565340
5.865800 0.564696
5.875700 0.563944
5.885600 0.563139
5.895500 0.562393
5.905400 0.561792
5.915300 0.561339
5.925200 0.560953
5.935100 0.560520
5.945000 0.559951
5.954900 0.559218
5.964800 0.558349
5.974700 0.557387
5.984600 0.556389
5.994500 0.555420
6.004400 0.554531
6.014300 0.553738
6.024200 0.553011
6.034100 0.552294
6.044000 0.551526
6.053900 0.550676
6.063800 0.549749
6.073700 0.548785
6.083600 0.547814
6.093500 0.546826
6.103400 0.545802
6.113300 0.544748
6.123200 0.543699
6.133100 0.542716
6.143000 0.541894
6.152900 0.541315
6.162800 0.540971
6.172700 0.540747
6.182600 0.540481
6.192500 0.540038
6.202400 0.539393
6.212300 0.538634
6.222200 0.537889
6.232100 0.537218
6.242000 0.536580
6.251900 0.535879
6.261800 0.535044
6.271700 0.534078
6.281600 0.533054
6.291500 0.532080
6.301400 0.531234
6.311300 0.530501
6.321200 0.529760
6.331100 0.528847
6.341000 0.527661
6.350900 0.526231
6.360800 0.524685
6.370700 0.523164
6.380600 0.521740
6.390500 0.520401
6.400400 0.519117
6.410300 0.517891
6.420200 0.516749
6.430100 0.515690
6.440000 0.514677
6.449900 0.513677
6.459800 0.512691
6.469700 0.511744
6.479600 0.510838
6.489500 0.509924
6.499400 0.508921
6.509300 0.507779
6.519200 0.506503
6.529100 0.505127
6.539000 0.503673
6.548900 0.502150
6.558800 0.500573
6.568700 0.498974
6.578600 0.497407
6.588500 0.495942
6.598400 0.494650
6.608300 0.493583
6.618200 0.492747
6.628100 0.492099
6.638000 0.491540
6.647900 0.490950
6.657800 0.490230
6.667700 0.489354
6.677600 0.488374
6.687500 0.487380
6.697400 0.486463
6.707300 0.485680
6.717200 0.485024
6.727100 0.484422
6.737000 0.483768
6.746900 0.482998
6.756800 0.482117
6.766700 0.481195
6.776600 0.480323
6.786500 0.479570
6.796400 0.478958
6.806300 0.478478
6.816200 0.478095
6.826100 0.477761
6.836000 0.477422
6.845900 0.477020
6.855800 0.476509
6.865700 0.475877
6.875600 0.475150
6.885500 0.474368
6.895400 0.473556
6.905300 0.472724
6.915200 0.471889
6.925100 0.471056
6.935000 0.470206
6.944900 0.469284
6.954800 0.468222
6.964700 0.466993
6.974600 0.465639
6.984500 0.464262
6.994400 0.462960
7.004300 0.461759
7.014200 0.460632
7.024100 0.459551
7.034000 0.458501
7.043900 0.457472
7.053800 0.456450
7.063700 0.455427
7.073600 0.454418
7.083500 0.453452
7.093400 0.452544
7.103300 0.451682
7.113200 0.450822
7.123100 0.449905
7.133000 0.448888
7.142900 0.447771
7.152800 0.446593
7.162700 0.445411
7.172600 0.444292
7.182500 0.443301
7.192400 0.442480
7.202300 0.441837
7.212200 0.441345
7.222100 0.440960
7.232000 0.440641
7.241900 0.440360
7.251800 0.440096
7.261700 0.439826
7.271600 0.439514
7.281500 0.439112
7.291400 0.438589
7.301300 0.437963
7.311200 0.437292
7.321100 0.436617
7.331000 0.435929
7.340900 0.435175
7.350800 0.434296
7.360700 0.433274
7.370600 0.432154
7.380500 0.431040
7.390400 0.430045
7.400300 0.429232
7.410200 0.428602
7.420100 0.428120
7.430000 0.427722
7.439900 0.427322
7.449800 0.426840
7.459700 0.426216
7.469600 0.425416
7.479500 0.424458
7.489400 0.423418
7.499300 0.422374
7.509200 0.421357
7.519100 0.420348
7.529000 0.419311
7.538900 0.418224
7.548800 0.417106
7.558700 0.416004
7.568600 0.414950
7.578500 0.413931
7.588400 0.412908
7.598300 0.411850
7.608200 0.410734
7.618100 0.409531
7.628000 0.408213
7.637900 0.406784
7.647800 0.405282
7.657700 0.403759
7.667600 0.402248
7.677500 0.400752
7.687400 0.399276
7.697300 0.397859
7.707200 0.396548
7.717100 0.395365
7.727000 0.394293
7.736900 0.393284
7.746800 0.392269
7.756700 0.391177
7.766600 0.389957
7.776500 0.388615
7.786400 0.387213
7.796300 0.385829
7.806200 0.384501
7.816100 0.383220
7.826000 0.381979
7.835900 0.380800
7.845800 0.379707
7.855700 0.378685
7.865600 0.377677
7.875500 0.376600
7.885400 0.375374
7.895300 0.373947
7.905200 0.372318
7.915100 0.370513
7.925000 0.368532
7.934900 0.366357
7.944800 0.363998
7.954700 0.361529
7.964600 0.359070
7.974500 0.356740
7.984400 0.354605
7.994300 0.352665
8.004200 0.350863
8.014100 0.349122
8.024000 0.347372
8.033900 0.345550
8.043800 0.343613
8.053700 0.341564
8.063600 0.339442
8.073500 0.337300
8.083400 0.335202
8.093300 0.333223
8.103200 0.331428
8.113100 0.329814
8.123000 0.328289
8.132900 0.326698
8.142800 0.324910
8.152700 0.322898
8.162600 0.320737
8.172500 0.318540
8.182400 0.316387
8.192300 0.314296
8.202200 0.312233
8.212100 0.310160
8.222000 0.308079
8.231900 0.306025
8.241800 0.304028
8.251700 0.302108
8.261600 0.300278
8.271500 0.298540
8.281400 0.296883
8.291300 0.295267
8.301200 0.293628
8.311100 0.291900
8.321000 0.290060
8.330900 0.288148
8.340800 0.286245
8.350700 0.284422
8.360600 0.282701
8.370500 0.281056
8.380400 0.279440
8.390300 0.277798
8.400200 0.276075
8.410100 0.274233
8.420000 0.272266
8.429900 0.270194
8.439800 0.268057
8.449700 0.265901
8.459600 0.263763
8.469500 0.261671
8.479400 0.259642
8.489300 0.257678
8.499200 0.255774
8.509100 0.253922
8.519000 0.252115
8.528900 0.250344
8.538800 0.248606
8.548700 0.246898
8.558600 0.245216
8.568500 0.243546
8.578400 0.241860
8.588300 0.240128
8.598200 0.238334
8.608100 0.236487
8.618000 0.234605
8.627900 0.232707
8.637800 0.230811
8.647700 0.228939
8.657600 0.227107
8.667500 0.225324
8.677400 0.223583
8.687300 0.221864
8.697200 0.220147
8.707100 0.218417
8.717000 0.216672
8.726900 0.214909
8.736800 0.213129
8.746700 0.211331
8.756600 0.209532
8.766500 0.207750
8.776400 0.205997
8.786300 0.204285
8.796200 0.202638
8.806100 0.201082
8.816000 0.199629
8.825900 0.198257
8.835800 0.196916
8.845700 0.195553
8.855600 0.194131
8.865500 0.192641
8.875400 0.191088
8.885300 0.189479
8.895200 0.187826
8.905100 0.186148
8.915000 0.184463
8.924900 0.182775
8.934800 0.181080
8.944700 0.179376
8.954600 0.177675
8.964500 0.175989
8.974400 0.174318
8.984300 0.172655
8.994200 0.170999
9.004100 0.169354
9.014000 0.167715
9.023900 0.166066
9.033800 0.164402
9.043700 0.162731
9.053600 0.161067
9.063500 0.159417
9.073400 0.157793
9.083300 0.156208
9.093200 0.154673
9.103100 0.153188
9.113000 0.151753
9.122900 0.150363
9.132800 0.149004
9.142700 0.147659
9.152600 0.146311
9.162500 0.144948
9.172400 0.143571
9.182300 0.142176
9.192200 0.140753
9.202100 0.139289
9.212000 0.137790
9.221900 0.136274
9.231800 0.134761
9.241700 0.133266
9.251600 0.131802
9.261500 0.130377
9.271400 0.128980
9.281300 0.127594
9.291200 0.126203
9.301100 0.124805
9.311000 0.123413
9.320900 0.122041
9.330800 0.120703
9.340700 0.119402
9.350600 0.118129
9.360500 0.116878
9.370400 0.115644
9.380300 0.114417
9.390200 0.113186
9.400100 0.111944
9.410000 0.110696
9.419900 0.109457
9.429800 0.108245
9.439700 0.107073
9.449600 0.105947
9.459500 0.104868
9.469400 0.103828
9.479300 0.102818
9.489200 0.101824
9.499100 0.100828
9.509000 0.099809
9.518900 0.098765
9.528800 0.097704
9.538700 0.096643
9.548600 0.095588
9.558500 0.094540
9.568400 0.093496
9.578300 0.092456
9.588200 0.091424
9.598100 0.090403
9.608000 0.089391
9.617900 0.088386
9.627800 0.087387
9.637700 0.086391
9.647600 0.085393
9.657500 0.084384
9.667400 0.083368
9.677300 0.082360
9.687200 0.081381
9.697100 0.080439
9.707000 0.079528
9.716900 0.078636
9.726800 0.077750
9.736700 0.076869
9.746600 0.075997
9.756500 0.075140
9.766400 0.074298
9.776300 0.073473
9.786200 0.072660
9.796100 0.071853
9.806000 0.071048
9.815900 0.070243
9.825800 0.069440
9.835700 0.068642
9.845600 0.067848
9.855500 0.067056
9.865400 0.066261
9.875300 0.065460
9.885200 0.064650
9.895100 0.063836
9.905000 0.063021
9.914900 0.062211
9.924800 0.061414
9.934700 0.060644
9.944600 0.059909
9.954500 0.059211
9.964400 0.058544
9.974300 0.057895
9.984200 0.057249
9.994100 0.056593
10.004000 0.055916
10.013900 0.055217
10.023800 0.054502
10.033700 0.053781
10.043600 0.053070
10.053500 0.052380
10.063400 0.051715
10.073300 0.051077
10.083200 0.050463
10.093100 0.049869
10.103000 0.049291
10.112900 0.048723
10.122800 0.048160
10.132700 0.047601
10.142600 0.047048
10.152500 0.046500
10.162400 0.045957
10.172300 0.045416
10.182200 0.044873
10.192100 0.044327
10.202000 0.043777
10.211900 0.043227
10.221800 0.042680
10.231700 0.042140
10.241600 0.041608
10.251500 0.041085
10.261400 0.040568
10.271300 0.040057
10.281200 0.039548
10.291100 0.039039
10.301000 0.038531
10.310900 0.038020
10.320800 0.037507
10.330700 0.036992
10.340600 0.036481
10.350500 0.035983
10.360400 0.035503
10.370300 0.035042
10.380200 0.034595
10.390100 0.034159
10.400000 0.033730
10.409900 0.033311
10.419800 0.032902
10.429700 0.032503
10.439600 0.032112
10.449500 0.031727
10.459400 0.031342
10.469300 0.030951
10.479200 0.030549
10.489100 0.030135
10.499000 0.029713
10.508900 0.029287
10.518800 0.028862
10.528700 0.028441
10.538600 0.028024
10.548500 0.027612
10.558400 0.027207
10.568300 0.026811
10.578200 0.026426
10.588100 0.026052
10.598000 0.025686
10.607900 0.025327
10.617800 0.024970
10.627700 0.024618
10.637600 0.024272
10.647500 0.023936
10.657400 0.023608
10.667300 0.023287
10.677200 0.022971
10.687100 0.022661
10.697000 0.022358
10.706900 0.022064
10.716800 0.021781
10.726700 0.021505
10.736600 0.021228
10.746500 0.020946
10.756400 0.020658
10.766300 0.020368
10.776200 0.020080
10.786100 0.019802
10.796000 0.019536
10.805900 0.019281
10.815800 0.019036
10.825700 0.018799
10.835600 0.018570
10.845500 0.018348
10.855400 0.018130
10.865300 0.017913
10.875200 0.017694
10.885100 0.017472
10.895000 0.017249
10.904900 0.017026
10.914800 0.016804
10.924700 0.016585
10.934600 0.016370
10.944500 0.016160
10.954400 0.015954
10.964300 0.015751
10.974200 0.015549
10.984100 0.015348
10.994000 0.015149
11.003900 0.014955
11.013800 0.014764
11.023700 0.014579
11.033600 0.014397
11.043500 0.014220
11.053400 0.014045
11.063300 0.013871
11.073200 0.013697
11.083100 0.013521
11.093000 0.013344
11.102900 0.013166
11.112800 0.012987
11.122700 0.012808
11.132600 0.012629
11.142500 0.012453
11.152400 0.012283
11.162300 0.012120
11.172200 0.011965
11.182100 0.011815
11.192000 0.011669
11.201900 0.011528
11.211800 0.011391
11.221700 0.011261
11.231600 0.011137
11.241500 0.011016
11.251400 0.010898
11.261300 0.010781
11.271200 0.010665
11.281100 0.010549
11.291000 0.010433
11.300900 0.010315
11.310800 0.010194
11.320700 0.010070
11.330600 0.009942
11.340500 0.009812
11.350400 0.009679
11.360300 0.009547
11.370200 0.009416
11.380100 0.009289
11.390000 0.009165
11.399900 0.009045
11.409800 0.008930
11.419700 0.008822
11.429600 0.008720
11.439500 0.008622
11.449400 0.008528
11.459300 0.008436
11.469200 0.008345
11.479100 0.008252
11.489000 0.008157
11.498900 0.008061
11.508800 0.007964
11.518700 0.007868
11.528600 0.007772
11.538500 0.007677
11.548400 0.007584
11.558300 0.007494
11.568200 0.007407
11.578100 0.007321
11.588000 0.007237
11.597900 0.007155
11.607800 0.007074
11.617700 0.006996
11.627600 0.006921
11.637500 0.006849
11.647400 0.006779
11.657300 0.006709
11.667200 0.006639
11.677100 0.006569
11.687000 0.006501
11.696900 0.006436
11.706800 0.006373
11.716700 0.006311
11.726600 0.006248
11.736500 0.006183
11.746400 0.006116
11.756300 0.006048
11.766200 0.005981
11.776100 0.005914
11.786000 0.005849
11.795900 0.005785
11.805800 0.005723
11.815700 0.005662
11.825600 0.005603
11.835500 0.005546
11.845400 0.005489
11.855300 0.005434
11.865200 0.005379
11.875100 0.005325
11.885000 0.005271
11.894900 0.005219
11.904800 0.005168
11.914700 0.005119
11.924600 0.005070
11.934500 0.005023
11.944400 0.004977
11.954300 0.004931
11.964200 0.004886
11.974100 0.004841
11.984000 0.004797
11.993900 0.004752
12.003800 0.004708
12.013700 0.004664
12.023600 0.004619
12.033500 0.004574
12.043400 0.004528
12.053300 0.004483
12.063200 0.004439
12.073100 0.004397
12.083000 0.004357
12.092900 0.004319
12.102800 0.004282
12.112700 0.004245
12.122600 0.004209
12.132500 0.004174
12.142400 0.004139
12.152300 0.004104
12.162200 0.004070
12.172100 0.004036
12.182000 0.004002
12.191900 0.003970
12.201800 0.003938
12.211700 0.003907
12.221600 0.003876
12.231500 0.003846
12.241400 0.003815
12.251300 0.003784
12.261200 0.003754
12.271100 0.003724
12.281000 0.003693
12.290900 0.003663
12.300800 0.003632
12.310700 0.003601
12.320600 0.003571
12.330500 0.003541
12.340400 0.003512
12.350300 0.003483
12.360200 0.003454
12.370100 0.003426
12.380000 0.003399
12.389900 0.003372
12.399800 0.003346
12.409700 0.003320
12.419600 0.003295
12.429500 0.003269
12.439400 0.003245
12.449300 0.003220
12.459200 0.003196
12.469100 0.003173
12.479000 0.003151
12.488900 0.003129
12.498800 0.003107
12.508700 0.003086
12.518600 0.003066
12.528500 0.003046
12.538400 0.003026
12.548300 0.003006
12.558200 0.002987
12.568100 0.002969
12.578000 0.002950
12.587900 0.002932
12.597800 0.002913
12.607700 0.002895
12.617600 0.002876
12.627500 0.002858
12.637400 0.002839
12.647300 0.002821
12.657200 0.002803
12.667100 0.002786
12.677000 0.002768
12.686900 0.002751
12.696800 0.002734
12.706700 0.002717
12.716600 0.002701
12.726500 0.002685
12.736400 0.002669
12.746300 0.002654
12.756200 0.002640
12.766100 0.002625
12.776000 0.002610
12.785900 0.002595
12.795800 0.002580
12.805700 0.002566
12.815600 0.002552
12.825500 0.002538
12.835400 0.002525
12.845300 0.002512
12.855200 0.002499
12.865100 0.002486
12.875000 0.002473
12.884900 0.002460
12.894800 0.002447
12.904700 0.002434
12.914600 0.002422
12.924500 0.002410
12.934400 0.002399
12.944300 0.002387
12.954200 0.002376
12.964100 0.002365
12.974000 0.002354
12.983900 0.002343
12.993800 0.002332
13.003700 0.002321
13.013600 0.002310
13.023500 0.002299
13.033400 0.002288
13.043300 0.002277
13.053200 0.002266
13.063100 0.002254
13.073000 0.002243
13.082900 0.002233
13.092800 0.002222
13.102700 0.002212
13.112600 0.002201
13.122500 0.002191
13.132400 0.002181
13.142300 0.002171
13.152200 0.002161
13.162100 0.002152
13.172000 0.002142
13.181900 0.002133
13.191800 0.002124
13.201700 0.002115
13.211600 0.002107
13.221500 0.002098
13.231400 0.002089
13.241300 0.002081
13.251200 0.002072
13.261100 0.002064
13.271000 0.002055
13.280900 0.002047
13.290800 0.002039
13.300700 0.002032
13.310600 0.002024
13.320500 0.002017
13.330400 0.002009
13.340300 0.002002
13.350200 0.001994
13.360100 0.001987
13.370000 0.001979
13.379900 0.001971
13.389800 0.001964
13.399700 0.001956
13.409600 0.001949
13.419500 0.001942
13.429400 0.001934
13.439300 0.001927
13.449200 0.001920
13.459100 0.001914
13.469000 0.001907
13.478900 0.001900
13.488800 0.001894
13.498700 0.001887
13.508600 0.001881
13.518500 0.001874
13.528400 0.001868
13.538300 0.001861
13.548200 0.001855
13.558100 0.001849
13.568000 0.001843
13.577900 0.001836
13.587800 0.001830
13.597700 0.001824
13.607600 0.001818
13.617500 0.001812
13.627400 0.001806
13.637300 0.001801
13.647200 0.001795
13.657100 0.001789
13.667000 0.001783
13.676900 0.001778
13.686800 0.001772
13.696700 0.001766
13.706600 0.001761
13.716500 0.001755
13.726400 0.001749
13.736300 0.001744
13.746200 0.001738
13.756100 0.001733
13.766000 0.001727
13.775900 0.001722
13.785800 0.001717
13.795700 0.001712
13.805600 0.001706
13.815500 0.001701
13.825400 0.001696
13.835300 0.001691
13.845200 0.001687
13.855100 0.001682
13.865000 0.001677
13.874900 0.001672
13.884800 0.001667
13.894700 0.001662
13.904600 0.001658
13.914500 0.001653
13.924400 0.001649
13.934300 0.001644
13.944200 0.001640
13.954100 0.001635
13.964000 0.001631
13.973900 0.001627
13.983800 0.001622
13.993700 0.001618
14.003600 0.001614
14.013500 0.001609
14.023400 0.001605
14.033300 0.001600
14.043200 0.001596
14.053100 0.001592
14.063000 0.001587
14.072900 0.001583
14.082800 0.001579
14.092700 0.001574
14.102600 0.001570
14.112500 0.001566
14.122400 0.001562
14.132300 0.001558
14.142200 0.001554
14.152100 0.001550
14.162000 0.001546
14.171900 0.001542
14.181800 0.001538
14.191700 0.001534
14.201600 0.001530
14.211500 0.001526
14.221400 0.001522
14.231300 0.001518
14.241200 0.001514
14.251100 0.001510
14.261000 0.001507
14.270900 0.001503
14.280800 0.001499
14.290700 0.001496
14.300600 0.001492
14.310500 0.001488
14.320400 0.001485
14.330300 0.001481
14.340200 0.001478
14.350100 0.001474
14.360000 0.001471
14.369900 0.001467
14.379800 0.001464
14.389700 0.001460
14.399600 0.001457
14.409500 0.001454
14.419400 0.001450
14.429300 0.001447
14.439200 0.001443
14.449100 0.001440
14.459000 0.001437
14.468900 0.001433
14.478800 0.001430
14.488700 0.001427
14.498600 0.001424
14.508500 0.001420
14.518400 0.001417
14.528300 0.001414
14.538200 0.001411
14.548100 0.001408
14.558000 0.001404
14.567900 0.001401
14.577800 0.001398
14.587700 0.001395
14.597600 0.001392
14.607500 0.001389
14.617400 0.001386
14.627300 0.001383
14.637200 0.001380
14.647100 0.001377
14.657000 0.001374
14.666900 0.001371
14.676800 0.001368
14.686700 0.001365
14.696600 0.001362
14.706500 0.001359
14.716400 0.001356
14.726300 0.001353
14.736200 0.001350
14.746100 0.001347
14.756000 0.001344
14.765900 0.001341
14.775800 0.001339
14.785700 0.001336
14.795600 0.001333
14.805500 0.001330
14.815400 0.001327
14.825300 0.001325
14.835200 0.001322
14.845100 0.001319
14.855000 0.001316
14.864900 0.001313
14.874800 0.001311
14.884700 0.001308
14.894600 0.001305
14.904500 0.001303
14.914400 0.001300
14.924300 0.001297
14.934200 0.001295
14.944100 0.001292
14.954000 0.001290
14.963900 0.001287
14.973800 0.001284
14.983700 0.001282
14.993600 0.001279
15.003500 0.001277
15.013400 0.001274
15.023300 0.001271
15.033200 0.001269
15.043100 0.001266
15.053000 0.001264
15.062900 0.001261
15.072800 0.001259
15.082700 0.001256
15.092600 0.001254
15.102500 0.001252
15.112400 0.001249
15.122300 0.001247
15.132200 0.001244
15.142100 0.001242
15.152000 0.001239
15.161900 0.001237
15.171800 0.001235
15.181700 0.001232
15.191600 0.001230
15.201500 0.001227
15.211400 0.001225
15.221300 0.001223
15.231200 0.001220
15.241100 0.001218
15.251000 0.001216
15.260900 0.001213
15.270800 0.001211
15.280700 0.001209
15.290600 0.001206
15.300500 0.001204
15.310400 0.001202
15.320300 0.001200
15.330200 0.001197
15.340100 0.001195
15.350000 0.001193
15.359900 0.001191
15.369800 0.001188
15.379700 0.001186
15.389600 0.001184
15.399500 0.001182
15.409400 0.001180
15.419300 0.001178
15.429200 0.001175
15.439100 0.001173
15.449000 0.001171
15.458900 0.001169
15.468800 0.001167
15.478700 0.001165
15.488600 0.001162
15.498500 0.001160
15.508400 0.001158
15.518300 0.001156
15.528200 0.001154
15.538100 0.001152
15.548000 0.001150
15.557900 0.001148
15.567800 0.001146
15.577700 0.001144
15.587600 0.001141
15.597500 0.001139
15.607400 0.001137
15.617300 0.001135
15.627200 0.001133
15.637100 0.001131
15.647000 0.001129
15.656900 0.001127
15.666800 0.001125
15.676700 0.001123
15.686600 0.001121
15.696500 0.001119
15.706400 0.001117
15.716300 0.001115
15.726200 0.001113
15.736100 0.001111
15.746000 0.001109
15.755900 0.001107
15.765800 0.001106
15.775700 0.001104
15.785600 0.001102
15.795500 0.001100
15.805400 0.001098
15.815300 0.001096
15.825200 0.001094
15.835100 0.001092
15.845000 0.001090
15.854900 0.001088
15.864800 0.001086
15.874700 0.001085
15.884600 0.001083
15.894500 0.001081
15.904400 0.001079
15.914300 0.001077
15.924200 0.001075
15.934100 0.001073
15.944000 0.001072
15.953900 0.001070
15.963800 0.001068
15.973700 0.001066
15.983600 0.001064
15.993500 0.001062
16.003400 0.001061
16.013300 0.001059
16.023200 0.001057
16.033100 0.001055
16.043000 0.001054
16.052900 0.001052
16.062800 0.001050
16.072700 0.001048
16.082600 0.001046
16.092500 0.001045
16.102400 0.001043
16.112300 0.001041
16.122200 0.001039
16.132100 0.001038
16.142000 0.001036
16.151900 0.001034
16.161800 0.001032
16.171700 0.001031
16.181600 0.001029
16.191500 0.001027
16.201400 0.001026
16.211300 0.001024
16.221200 0.001022
16.231100 0.001021
16.241000 0.001019
16.250900 0.001017
16.260800 0.001016
16.270700 0.001014
16.280600 0.001012
16.290500 0.001011
16.300400 0.001009
16.310300 0.001007
16.320200 0.001006
16.330100 0.001004
16.340000 0.001002
16.349900 0.001001
16.359800 0.000999
16.369700 0.000997
16.379600 0.000996
16.389500 0.000994
16.399400 0.000993
16.409300 0.000991
16.419200 0.000989
16.429100 0.000988
16.439000 0.000986
16.448900 0.000985
16.458800 0.000983
16.468700 0.000982
16.478600 0.000980
16.488500 0.000978
16.498400 0.000977
16.508300 0.000975
16.518200 0.000974
16.528100 0.000972
16.538000 0.000971
16.547900 0.000969
16.557800 0.000968
16.567700 0.000966
16.577600 0.000964
16.587500 0.000963
16.597400 0.000961
16.607300 0.000960
16.617200 0.000958
16.627100 0.000957
16.637000 0.000955
16.646900 0.000954
16.656800 0.000952
16.666700 0.000951
16.676600 0.000949
16.686500 0.000948
16.696400 0.000946
16.706300 0.000945
16.716200 0.000943
16.726100 0.000942
16.736000 0.000941
16.745900 0.000939
16.755800 0.000938
16.765700 0.000936
16.775600 0.000935
16.785500 0.000933
16.795400 0.000932
16.805300 0.000930
16.815200 0.000929
16.825100 0.000927
16.835000 0.000926
16.844900 0.000925
16.854800 0.000923
16.864700 0.000922
16.874600 0.000920
16.884500 0.000919
16.894400 0.000918
16.904300 0.000916
16.914200 0.000915
16.924100 0.000913
16.934000 0.000912
16.943900 0.000911
16.953800 0.000909
16.963700 0.000908
16.973600 0.000906
16.983500 0.000905
16.993400 0.000904
17.003300 0.000902
17.013200 0.000901
17.023100 0.000900
17.033000 0.000898
17.042900 0.000897
17.052800 0.000896
17.062700 0.000894
17.072600 0.000893
17.082500 0.000892
17.092400 0.000890
17.102300 0.000889
17.112200 0.000888
17.122100 0.000886
17.132000 0.000885
17.141900 0.000884
17.151800 0.000882
17.161700 0.000881
17.171600 0.000880
17.181500 0.000878
17.191400 0.000877
17.201300 0.000876
17.211200 0.000874
17.221100 0.000873
17.231000 0.000872
17.240900 0.000871
17.250800 0.000869
17.260700 0.000868
17.270600 0.000867
17.280500 0.000865
17.290400 0.000864
17.300300 0.000863
17.310200 0.000862
17.320100 0.000860
17.330000 0.000859
17.339900 0.000858
17.349800 0.000857
17.359700 0.000855
17.369600 0.000854
17.379500 0.000853
17.389400 0.000852
17.399300 0.000850
17.409200 0.000849
17.419100 0.000848
17.429000 0.000847
17.438900 0.000845
17.448800 0.000844
17.458700 0.000843
17.468600 0.000842
17.478500 0.000841
17.488400 0.000839
17.498300 0.000838
17.508200 0.000837
17.518100 0.000836
17.528000 0.000835
17.537900 0.000833
17.547800 0.000832
17.557700 0.000831
17.567600 0.000830
17.577500 0.000829
17.587400 0.000827
17.597300 0.000826
17.607200 0.000825
17.617100 0.000824
17.627000 0.000823
17.636900 0.000822
17.646800 0.000820
17.656700 0.000819
17.666600 0.000818
17.676500 0.000817
17.686400 0.000816
17.696300 0.000815
17.706200 0.000813
17.716100 0.000812
17.726000 0.000811
17.735900 0.000810
17.745800 0.000809
17.755700 0.000808
17.765600 0.000807
17.775500 0.000806
17.785400 0.000804
17.795300 0.000803
17.805200 0.000802
17.815100 0.000801
17.825000 0.000800
17.834900 0.000799
17.844800 0.000798
17.854700 0.000797
17.864600 0.000795
17.874500 0.000794
17.884400 0.000793
17.894300 0.000792
17.904200 0.000791
17.914100 0.000790
17.924000 0.000789
17.933900 0.000788
17.943800 0.000787
17.953700 0.000786
17.963600 0.000785
17.973500 0.000783
17.983400 0.000782
17.993300 0.000781
18.003200 0.000780
18.013100 0.000779
18.023000 0.000778
18.032900 0.000777
18.042800 0.000776
18.052700 0.000775
18.062600 0.000774
18.072500 0.000773
18.082400 0.000772
18.092300 0.000771
18.102200 0.000770
18.112100 0.000769
18.122000 0.000768
18.131900 0.000766
18.141800 0.000765
18.151700 0.000764
18.161600 0.000763
18.171500 0.000762
18.181400 0.000761
18.191300 0.000760
18.201200 0.000759
18.211100 0.000758
18.221000 0.000757
18.230900 0.000756
18.240800 0.000755
18.250700 0.000754
18.260600 0.000753
18.270500 0.000752
18.280400 0.000751
18.290300 0.000750
18.300200 0.000749
18.310100 0.000748
18.320000 0.000747
18.329900 0.000746
18.339800 0.000745
18.349700 0.000744
18.359600 0.000743
18.369500 0.000742
18.379400 0.000741
18.389300 0.000740
18.399200 0.000739
18.409100 0.000738
18.419000 0.000737
18.428900 0.000736
18.438800 0.000735
18.448700 0.000734
18.458600 0.000733
18.468500 0.000732
18.478400 0.000731
18.488300 0.000730
18.498200 0.000730
18.508100 0.000729
18.518000 0.000728
18.527900 0.000727
18.537800 0.000726
18.547700 0.000725
18.557600 0.000724
18.567500 0.000723
18.577400 0.000722
18.587300 0.000721
18.597200 0.000720
18.607100 0.000719
18.617000 0.000718
18.626900 0.000717
18.636800 0.000716
18.646700 0.000715
18.656600 0.000714
18.666500 0.000713
18.676400 0.000713
18.686300 0.000712
18.696200 0.000711
18.706100 0.000710
18.716000 0.000709
18.725900 0.000708
18.735800 0.000707
18.745700 0.000706
18.755600 0.000705
18.765500 0.000704
18.775400 0.000703
18.785300 0.000703
18.795200 0.000702
18.805100 0.000701
18.815000 0.000700
18.824900 0.000699
18.834800 0.000698
18.844700 0.000697
18.854600 0.000696
18.864500 0.000695
18.874400 0.000694
18.884300 0.000694
18.894200 0.000693
18.904100 0.000692
18.914000 0.000691
18.923900 0.000690
18.933800 0.000689
18.943700 0.000688
18.953600 0.000687
18.963500 0.000687
18.973400 0.000686
18.983300 0.000685
18.993200 0.000684
19.003100 0.000683
19.013000 0.000682
19.022900 0.000681
19.032800 0.000681
19.042700 0.000680
19.052600 0.000679
19.062500 0.000678
19.072400 0.000677
19.082300 0.000676
19.092200 0.000675
19.102100 0.000675
19.112000 0.000674
19.121900 0.000673
19.131800 0.000672
19.141700 0.000671
19.151600 0.000670
19.161500 0.000669
19.171400 0.000669
19.181300 0.000668
19.191200 0.000667
19.201100 0.000666
19.211000 0.000665
19.220900 0.000665
19.230800 0.000664
19.240700 0.000663
19.250600 0.000662
19.260500 0.000661
19.270400 0.000660
19.280300 0.000660
19.290200 0.000659
19.300100 0.000658
19.310000 0.000657
19.319900 0.000656
19.329800 0.000656
19.339700 0.000655
19.349600 0.000654
19.359500 0.000653
19.369400 0.000652
19.379300 0.000652
19.389200 0.000651
19.399100 0.000650
19.409000 0.000649
19.418900 0.000648
19.428800 0.000648
19.438700 0.000647
19.448600 0.000646
19.458500 0.000645
19.468400 0.000644
19.478300 0.000644
19.488200 0.000643
19.498100 0.000642
19.508000 0.000641
19.517900 0.000640
19.527800 0.000640
19.537700 0.000639
19.547600 0.000638
19.557500 0.000637
19.567400 0.000637
19.577300 0.000636
19.587200 0.000635
19.597100 0.000634
19.607000 0.000634
19.616900 0.000633
19.626800 0.000632
19.636700 0.000631
19.646600 0.000630
19.656500 0.000630
19.666400 0.000629
19.676300 0.000628
19.686200 0.000627
19.696100 0.000627
19.706000 0.000626
19.715900 0.000625
19.725800 0.000624
19.735700 0.000624
19.745600 0.000623
19.755500 0.000622
19.765400 0.000621
19.775300 0.000621
19.785200 0.000620
19.795100 0.000619
19.805000 0.000619
19.814900 0.000618
19.824800 0.000617
19.834700 0.000616
19.844600 0.000616
19.854500 0.000615
19.864400 0.000614
19.874300 0.000613
19.884200 0.000613
19.894100 0.000612
19.904000 0.000611
19.913900 0.000611
19.923800 0.000610
19.933700 0.000609
19.943600 0.000608
19.953500 0.000608
19.963400 0.000607
19.973300 0.000606
19.983200 0.000606
19.993100 0.000605
20.003000 0.000604
20.012900 0.000603
20.022800 0.000603
20.032700 0.000602
20.042600 0.000601
20.052500 0.000601
20.062400 0.000600
20.072300 0.000599
20.082200 0.000598
20.092100 0.000598
20.102000 0.000597
20.111900 0.000596
20.121800 0.000596
20.131700 0.000595
20.141600 0.000594
20.151500 0.000594
20.161400 0.000593
20.171300 0.000592
20.181200 0.000592
20.191100 0.000591
20.201000 0.000590
20.210900 0.000590
20.220800 0.000589
20.230700 0.000588
20.240600 0.000587
20.250500 0.000587
20.260400 0.000586
20.270300 0.000585
20.280200 0.000585
20.290100 0.000584
20.300000 0.000583
20.309900 0.000583
20.319800 0.000582
20.329700 0.000581
20.339600 0.000581
20.349500 0.000580
20.359400 0.000579
20.369300 0.000579
20.379200 0.000578
20.389100 0.000577
20.399000 0.000577
20.408900 0.000576
20.418800 0.000575
20.428700 0.000575
20.438600 0.000574
20.448500 0.000574
20.458400 0.000573
20.468300 0.000572
20.478200 0.000572
20.488100 0.000571
20.498000 0.000570
20.507900 0.000570
20.517800 0.000569
20.527700 0.000568
20.537600 0.000568
20.547500 0.000567
20.557400 0.000566
20.567300 0.000566
20.577200 0.000565
20.587100 0.000565
20.597000 0.000564
20.606900 0.000563
20.616800 0.000563
20.626700 0.000562
20.636600 0.000561
20.646500 0.000561
20.656400 0.000560
20.666300 0.000559
20.676200 0.000559
20.686100 0.000558
20.696000 0.000558
20.705900 0.000557
20.715800 0.000556
20.725700 0.000556
20.735600 0.000555
20.745500 0.000554
20.755400 0.000554
20.765300 0.000553
20.775200 0.000553
20.785100 0.000552
20.795000 0.000551
20.804900 0.000551
20.814800 0.000550
20.824700 0.000550
20.834600 0.000549
20.844500 0.000548
20.854400 0.000548
20.864300 0.000547
20.874200 0.000547
20.884100 0.000546
20.894000 0.000545
20.903900 0.000545
20.913800 0.000544
20.923700 0.000544
20.933600 0.000543
20.943500 0.000542
20.953400 0.000542
20.963300 0.000541
20.973200 0.000541
20.983100 0.000540
20.993000 0.000539
21.002900 0.000539
21.012800 0.000538
21.022700 0.000538
21.032600 0.000537
21.042500 0.000536
21.052400 0.000536
21.062300 0.000535
21.072200 0.000535
21.082100 0.000534
21.092000 0.000534
21.101900 0.000533
21.111800 0.000532
21.121700 0.000532
21.131600 0.000531
21.141500 0.000531
21.151400 0.000530
21.161300 0.000529
21.171200 0.000529
21.181100 0.000528
21.191000 0.000528
21.200900 0.000527
21.210800 0.000527
21.220700 0.000526
21.230600 0.000525
21.240500 0.000525
21.250400 0.000524
21.260300 0.000524
21.270200 0.000523
21.280100 0.000523
21.290000 0.000522
21.299900 0.000522
21.309800 0.000521
21.319700 0.000520
21.329600 0.000520
21.339500 0.000519
21.349400 0.000519
21.359300 0.000518
21.369200 0.000518
21.379100 0.000517
21.389000 0.000517
21.398900 0.000516
21.408800 0.000515
21.418700 0.000515
21.428600 0.000514
21.438500 0.000514
21.448400 0.000513
21.458300 0.000513
21.468200 0.000512
21.478100 0.000512
21.488000 0.000511
21.497900 0.000511
21.507800 0.000510
21.517700 0.000509
21.527600 0.000509
21.537500 0.000508
21.547400 0.000508
21.557300 0.000507
21.567200 0.000507
21.577100 0.000506
21.587000 0.000506
21.596900 0.000505
21.606800 0.000505
21.616700 0.000504
21.626600 0.000504
21.636500 0.000503
21.646400 0.000503
21.656300 0.000502
21.666200 0.000501
21.676100 0.000501
21.686000 0.000500
21.695900 0.000500
21.705800 0.000499
21.715700 0.000499
21.725600 0.000498
21.735500 0.000498
21.745400 0.000497
21.755300 0.000497
21.765200 0.000496
21.775100 0.000496
21.785000 0.000495
21.794900 0.000495
21.804800 0.000494
21.814700 0.000494
21.824600 0.000493
21.834500 0.000493
21.844400 0.000492
21.854300 0.000492
21.864200 0.000491
21.874100 0.000491
21.884000 0.000490
21.893900 0.000490
21.903800 0.000489
21.913700 0.000489
21.923600 0.000488
21.933500 0.000488
21.943400 0.000487
21.953300 0.000487
21.963200 0.000486
21.973100 0.000486
21.983000 0.000485
21.992900 0.000485
22.002800 0.000484
22.012700 0.000484
22.022600 0.000483
22.032500 0.000483
22.042400 0.000482
22.052300 0.000482
22.062200 0.000481
22.072100 0.000481
22.082000 0.000480
22.091900 0.000480
22.101800 0.000479
22.111700 0.000479
22.121600 0.000478
22.131500 0.000478
22.141400 0.000477
22.151300 0.000477
22.161200 0.000476
22.171100 0.000476
22.181000 0.000475
22.190900 0.000475
22.200800 0.000474
22.210700 0.000474
22.220600 0.000473
22.230500 0.000473
22.240400 0.000472
22.250300 0.000472
22.260200 0.000471
22.270100 0.000471
22.280000 0.000470
22.289900 0.000470
22.299800 0.000469
22.309700 0.000469
22.319600 0.000468
22.329500 0.000468
22.339400 0.000468
22.349300 0.000467
22.359200 0.000467
22.369100 0.000466
22.379000 0.000466
22.388900 0.000465
22.398800 0.000465
22.408700 0.000464
22.418600 0.000464
22.428500 0.000463
22.438400 0.000463
22.448300 0.000462
22.458200 0.000462
22.468100 0.000461
22.478000 0.000461
22.487900 0.000461
22.497800 0.000460
22.507700 0.000460
22.517600 0.000459
22.527500 0.000459
22.537400 0.000458
22.547300 0.000458
22.557200 0.000457
22.567100 0.000457
22.577000 0.000456
22.586900 0.000456
22.596800 0.000456
22.606700 0.000455
22.616600 0.000455
22.626500 0.000454
22.636400 0.000454
22.646300 0.000453
22.656200 0.000453
22.666100 0.000452
22.676000 0.000452
22.685900 0.000451
22.695800 0.000451
22.705700 0.000451
22.715600 0.000450
22.725500 0.000450
22.735400 0.000449
22.745300 0.000449
22.755200 0.000448
22.765100 0.000448
22.775000 0.000448
22.784900 0.000447
22.794800 0.000447
22.804700 0.000446
22.814600 0.000446
22.824500 0.000445
22.834400 0.000445
22.844300 0.000444
22.854200 0.000444
22.864100 0.000444
22.874000 0.000443
22.883900 0.000443
22.893800 0.000442
22.903700 0.000442
22.913600 0.000441
22.923500 0.000441
22.933400 0.000441
22.943300 0.000440
22.953200 0.000440
22.963100 0.000439
22.973000 0.000439
22.982900 0.000438
22.992800 0.000438
23.002700 0.000438
23.012600 0.000437
23.022500 0.000437
23.032400 0.000436
23.042300 0.000436
23.052200 0.000435
23.062100 0.000435
23.072000 0.000435
23.081900 0.000434
23.091800 0.000434
23.101700 0.000433
23.111600 0.000433
23.121500 0.000433
23.131400 0.000432
23.141300 0.000432
23.151200 0.000431
23.161100 0.000431
23.171000 0.000430
23.180900 0.000430
23.190800 0.000430
23.200700 0.000429
23.210600 0.000429
23.220500 0.000428
23.230400 0.000428
23.240300 0.000428
23.250200 0.000427
23.260100 0.000427
23.270000 0.000426
23.279900 0.000426
23.289800 0.000425
23.299700 0.000425
23.309600 0.000425
23.319500 0.000424
23.329400 0.000424
23.339300 0.000423
23.349200 0.000423
23.359100 0.000423
23.369000 0.000422
23.378900 0.000422
23.388800 0.000421
23.398700 0.000421
23.408600 0.000421
23.418500 0.000420
23.428400 0.000420
23.438300 0.000419
23.448200 0.000419
23.458100 0.000419
23.468000 0.000418
23.477900 0.000418
23.487800 0.000417
23.497700 0.000417
23.507600 0.000417
23.517500 0.000416
23.527400 0.000416
23.537300 0.000416
23.547200 0.000415
23.557100 0.000415
23.567000 0.000414
23.576900 0.000414
23.586800 0.000414
23.596700 0.000413
23.606600 0.000413
23.616500 0.000412
23.626400 0.000412
23.636300 0.000412
23.646200 0.000411
23.656100 0.000411
23.666000 0.000410
23.675900 0.000410
23.685800 0.000410
23.695700 0.000409
23.705600 0.000409
23.715500 0.000409
23.725400 0.000408
23.735300 0.000408
23.745200 0.000407
23.755100 0.000407
23.765000 0.000407
23.774900 0.000406
23.784800 0.000406
23.794700 0.000406
23.804600 0.000405
23.814500 0.000405
23.824400 0.000404
23.834300 0.000404
23.844200 0.000404
23.854100 0.000403
23.864000 0.000403
23.873900 0.000403
23.883800 0.000402
23.893700 0.000402
23.903600 0.000401
23.913500 0.000401
23.923400 0.000401
23.933300 0.000400
23.943200 0.000400
23.953100 0.000400
23.963000 0.000399
23.972900 0.000399
23.982800 0.000398
23.992700 0.000398
24.002600 0.000398
24.012500 0.000397
24.022400 0.000397
24.032300 0.000397
24.042200 0.000396
24.052100 0.000396
24.062000 0.000396
24.071900 0.000395
24.081800 0.000395
24.091700 0.000394
24.101600 0.000394
24.111500 0.000394
24.121400 0.000393
24.131300 0.000393
24.141200 0.000393
24.151100 0.000392
24.161000 0.000392
24.170900 0.000392
24.180800 0.000391
24.190700 0.000391
24.200600 0.000390
24.210500 0.000390
24.220400 0.000390
24.230300 0.000389
24.240200 0.000389
24.250100 0.000389
24.260000 0.000388
24.269900 0.000388
24.279800 0.000388
24.289700 0.000387
24.299600 0.000387
24.309500 0.000387
24.319400 0.000386
24.329300 0.000386
24.339200 0.000386
24.349100 0.000385
24.359000 0.000385
24.368900 0.000385
24.378800 0.000384
24.388700 0.000384
24.398600 0.000383
24.408500 0.000383
24.418400 0.000383
24.428300 0.000382
24.438200 0.000382
24.448100 0.000382
24.458000 0.000381
24.467900 0.000381
24.477800 0.000381
24.487700 0.000380
24.497600 0.000380
24.507500 0.000380
24.517400 0.000379
24.527300 0.000379
24.537200 0.000379
24.547100 0.000378
24.557000 0.000378
24.566900 0.000378
24.576800 0.000377
24.586700 0.000377
24.596600 0.000377
24.606500 0.000376
24.616400 0.000376
24.626300 0.000376
24.636200 0.000375
24.646100 0.000375
24.656000 0.000375
24.665900 0.000374
24.675800 0.000374
24.685700 0.000374
24.695600 0.000373
24.705500 0.000373
24.715400 0.000373
24.725300 0.000372
24.735200 0.000372
24.745100 0.000372
24.755000 0.000371
24.764900 0.000371
24.774800 0.000371
24.784700 0.000370
24.794600 0.000370
24.804500 0.000370
24.814400 0.000369
24.824300 0.000369
24.834200 0.000369
24.844100 0.000368
24.854000 0.000368
24.863900 0.000368
24.873800 0.000367
24.883700 0.000367
24.893600 0.000367
24.903500 0.000366
24.913400 0.000366
24.923300 0.000366
24.933200 0.000365
24.943100 0.000365
24.953000 0.000365
24.962900 0.000365
24.972800 0.000364
24.982700 0.000364
24.992600 0.000364
25.002500 0.000363
25.012400 0.000363
25.022300 0.000363
25.032200 0.000362
25.042100 0.000362
25.052000 0.000362
25.061900 0.000361
25.071800 0.000361
25.081700 0.000361
25.091600 0.000360
25.101500 0.000360
25.111400 0.000360
25.121300 0.000359
25.131200 0.000359
25.141100 0.000359
25.151000 0.000359
25.160900 0.000358
25.170800 0.000358
25.180700 0.000358
25.190600 0.000357
25.200500 0.000357
25.210400 0.000357
25.220300 0.000356
25.230200 0.000356
25.240100 0.000356
25.250000 0.000355
25.259900 0.000355
25.269800 0.000355
25.279700 0.000355
25.289600 0.000354
25.299500 0.000354
25.309400 0.000354
25.319300 0.000353
25.329200 0.000353
25.339100 0.000353
25.349000 0.000352
25.358900 0.000352
25.368800 0.000352
25.378700 0.000351
25.388600 0.000351
25.398500 0.000351
25.408400 0.000351
25.418300 0.000350
25.428200 0.000350
25.438100 0.000350
25.448000 0.000349
25.457900 0.000349
25.467800 0.000349
25.477700 0.000348
25.487600 0.000348
25.497500 0.000348
25.507400 0.000348
25.517300 0.000347
25.527200 0.000347
25.537100 0.000347
25.547000 0.000346
25.556900 0.000346
25.566800 0.000346
25.576700 0.000346
25.586600 0.000345
25.596500 0.000345
25.606400 0.000345
25.616300 0.000344
25.626200 0.000344
25.636100 0.000344
25.646000 0.000343
25.655900 0.000343
25.665800 0.000343
25.675700 0.000343
25.685600 0.000342
25.695500 0.000342
25.705400 0.000342
25.715300 0.000341
25.725200 0.000341
25.735100 0.000341
25.745000 0.000341
25.754900 0.000340
25.764800 0.000340
25.774700 0.000340
25.784600 0.000339
25.794500 0.000339
25.804400 0.000339
25.814300 0.000339
25.824200 0.000338
25.834100 0.000338
25.844000 0.000338
25.853900 0.000337
25.863800 0.000337
25.873700 0.000337
25.883600 0.000337
25.893500 0.000336
25.903400 0.000336
25.913300 0.000336
25.923200 0.000335
25.933100 0.000335
25.943000 0.000335
25.952900 0.000335
25.962800 0.000334
25.972700 0.000334
25.982600 0.000334
25.992500 0.000334
26.002400 0.000333
26.012300 0.000333
26.022200 0.000333
26.032100 0.000332
26.042000 0.000332
26.051900 0.000332
26.061800 0.000332
26.071700 0.000331
26.081600 0.000331
26.091500 0.000331
26.101400 0.000330
26.111300 0.000330
26.121200 0.000330
26.131100 0.000330
26.141000 0.000329
26.150900 0.000329
26.160800 0.000329
26.170700 0.000329
26.180600 0.000328
26.190500 0.000328
26.200400 0.000328
26.210300 0.000327
26.220200 0.000327
26.230100 0.000327
26.240000 0.000327
26.249900 0.000326
26.259800 0.000326
26.269700 0.000326
26.279600 0.000326
26.289500 0.000325
26.299400 0.000325
26.309300 0.000325
26.319200 0.000325
26.329100 0.000324
26.339000 0.000324
26.348900 0.000324
26.358800 0.000323
26.368700 0.000323
26.378600 0.000323
26.388500 0.000323
26.398400 0.000322
26.408300 0.000322
26.418200 0.000322
26.428100 0.000322
26.438000 0.000321
26.447900 0.000321
26.457800 0.000321
26.467700 0.000321
26.477600 0.000320
26.487500 0.000320
26.497400 0.000320
26.507300 0.000320
26.517200 0.000319
26.527100 0.000319
26.537000 0.000319
26.546900 0.000318
26.556800 0.000318
26.566700 0.000318
26.576600 0.000318
26.586500 0.000317
26.596400 0.000317
26.606300 0.000317
26.616200 0.000317
26.626100 0.000316
26.636000 0.000316
26.645900 0.000316
26.655800 0.000316
26.665700 0.000315
26.675600 0.000315
26.685500 0.000315
26.695400 0.000315
26.705300 0.000314
26.715200 0.000314
26.725100 0.000314
26.735000 0.000314
26.744900 0.000313
26.754800 0.000313
26.764700 0.000313
26.774600 0.000313
26.784500 0.000312
26.794400 0.000312
26.804300 0.000312
26.814200 0.000312
26.824100 0.000311
26.834000 0.000311
26.843900 0.000311
26.853800 0.000311
26.863700 0.000310
26.873600 0.000310
26.883500 0.000310
26.893400 0.000310
26.903300 0.000309
26.913200 0.000309
26.923100 0.000309
26.933000 0.000309
26.942900 0.000308
26.952800 0.000308
26.962700 0.000308
26.972600 0.000308
26.982500 0.000307
26.992400 0.000307
27.002300 0.000307
27.012200 0.000307
27.022100 0.000306
27.032000 0.000306
27.041900 0.000306
27.051800 0.000306
27.061700 0.000305
27.071600 0.000305
27.081500 0.000305
27.091400 0.000305
27.101300 0.000304
27.111200 0.000304
27.121100 0.000304
27.131000 0.000304
27.140900 0.000304
27.150800 0.000303
27.160700 0.000303
27.170600 0.000303
27.180500 0.000303
27.190400 0.000302
27.200300 0.000302
27.210200 0.000302
27.220100 0.000302
27.230000 0.000301
27.239900 0.000301
27.249800 0.000301
27.259700 0.000301
27.269600 0.000300
27.279500 0.000300
27.289400 0.000300
27.299300 0.000300
27.309200 0.000299
27.319100 0.000299
27.329000 0.000299
27.338900 0.000299
27.348800 0.000299
27.358700 0.000298
27.368600 0.000298
27.378500 0.000298
27.388400 0.000298
27.398300 0.000297
27.408200 0.000297
27.418100 0.000297
27.428000 0.000297
27.437900 0.000296
27.447800 0.000296
27.457700 0.000296
27.467600 0.000296
27.477500 0.000295
27.487400 0.000295
27.497300 0.000295
27.507200 0.000295
27.517100 0.000295
27.527000 0.000294
27.536900 0.000294
27.546800 0.000294
27.556700 0.000294
27.566600 0.000293
27.576500 0.000293
27.586400 0.000293
27.596300 0.000293
27.606200 0.000293
27.616100 0.000292
27.626000 0.000292
27.635900 0.000292
27.645800 0.000292
27.655700 0.000291
27.665600 0.000291
27.675500 0.000291
27.685400 0.000291
27.695300 0.000290
27.705200 0.000290
27.715100 0.000290
27.725000 0.000290
27.734900 0.000290
27.744800 0.000289
27.754700 0.000289
27.764600 0.000289
27.774500 0.000289
27.784400 0.000288
27.794300 0.000288
27.804200 0.000288
27.814100 0.000288
27.824000 0.000288
27.833900 0.000287
27.843800 0.000287
27.853700 0.000287
27.863600 0.000287
27.873500 0.000286
27.883400 0.000286
27.893300 0.000286
27.903200 0.000286
27.913100 0.000286
27.923000 0.000285
27.932900 0.000285
27.942800 0.000285
27.952700 0.000285
27.962600 0.000285
27.972500 0.000284
27.982400 0.000284
27.992300 0.000284
28.002200 0.000284
28.012100 0.000283
28.022000 0.000283
28.031900 0.000283
28.041800 0.000283
28.051700 0.000283
28.061600 0.000282
28.071500 0.000282
28.081400 0.000282
28.091300 0.000282
28.101200 0.000281
28.111100 0.000281
28.121000 0.000281
28.130900 0.000281
28.140800 0.000281
28.150700 0.000280
28.160600 0.000280
28.170500 0.000280
28.180400 0.000280
28.190300 0.000280
28.200200 0.000279
28.210100 0.000279
28.220000 0.000279
28.229900 0.000279
28.239800 0.000279
28.249700 0.000278
28.259600 0.000278
28.269500 0.000278
28.279400 0.000278
28.289300 0.000277
28.299200 0.000277
28.309100 0.000277
28.319000 0.000277
28.328900 0.000277
28.338800 0.000276
28.348700 0.000276
28.358600 0.000276
28.368500 0.000276
28.378400 0.000276
28.388300 0.000275
28.398200 0.000275
28.408100 0.000275
28.418000 0.000275
28.427900 0.000275
28.437800 0.000274
28.447700 0.000274
28.457600 0.000274
28.467500 0.000274
28.477400 0.000274
28.487300 0.000273
28.497200 0.000273
28.507100 0.000273
28.517000 0.000273
28.526900 0.000273
28.536800 0.000272
28.546700 0.000272
28.556600 0.000272
28.566500 0.000272
28.576400 0.000271
28.586300 0.000271
28.596200 0.000271
28.606100 0.000271
28.616000 0.000271
28.625900 0.000270
28.635800 0.000270
28.645700 0.000270
28.655600 0.000270
28.665500 0.000270
28.675400 0.000269
28.685300 0.000269
28.695200 0.000269
28.705100 0.000269
28.715000 0.000269
28.724900 0.000268
28.734800 0.000268
28.744700 0.000268
28.754600 0.000268
28.764500 0.000268
28.774400 0.000267
28.784300 0.000267
28.794200 0.000267
28.804100 0.000267
28.814000 0.000267
28.823900 0.000266
28.833800 0.000266
28.843700 0.000266
28.853600 0.000266
28.863500 0.000266
28.873400 0.000266
28.883300 0.000265
28.893200 0.000265
28.903100 0.000265
28.913000 0.000265
28.922900 0.000265
28.932800 0.000264
28.942700 0.000264
28.952600 0.000264
28.962500 0.000264
28.972400 0.000264
28.982300 0.000263
28.992200 0.000263
29.002100 0.000263
29.012000 0.000263
29.021900 0.000263
29.031800 0.000262
29.041700 0.000262
29.051600 0.000262
29.061500 0.000262
29.071400 0.000262
29.081300 0.000261
29.091200 0.000261
29.101100 0.000261
29.111000 0.000261
29.120900 0.000261
29.130800 0.000261
29.140700 0.000260
29.150600 0.000260
29.160500 0.000260
29.170400 0.000260
29.180300 0.000260
29.190200 0.000259
29.200100 0.000259
29.210000 0.000259
29.219900 0.000259
29.229800 0.000259
29.239700 0.000258
29.249600 0.000258
29.259500 0.000258
29.269400 0.000258
29.279300 0.000258
29.289200 0.000257
29.299100 0.000257
29.309000 0.000257
29.318900 0.000257
29.328800 0.000257
29.338700 0.000257
29.348600 0.000256
29.358500 0.000256
29.368400 0.000256
29.378300 0.000256
29.388200 0.000256
29.398100 0.000255
29.408000 0.000255
29.417900 0.000255
29.427800 0.000255
29.437700 0.000255
29.447600 0.000255
29.457500 0.000254
29.467400 0.000254
29.477300 0.000254
29.487200 0.000254
29.497100 0.000254
29.507000 0.000253
29.516900 0.000253
29.526800 0.000253
29.536700 0.000253
29.546600 0.000253
29.556500 0.000253
29.566400 0.000252
29.576300 0.000252
29.586200 0.000252
29.596100 0.000252
29.606000 0.000252
29.615900 0.000251
29.625800 0.000251
29.635700 0.000251
29.645600 0.000251
29.655500 0.000251
29.665400 0.000251
29.675300 0.000250
29.685200 0.000250
29.695100 0.000250
29.705000 0.000250
29.714900 0.000250
29.724800 0.000249
29.734700 0.000249
29.744600 0.000249
29.754500 0.000249
29.764400 0.000249
29.774300 0.000249
29.784200 0.000248
29.794100 0.000248
29.804000 0.000248
29.813900 0.000248
29.823800 0.000248
29.833700 0.000248
29.843600 0.000247
29.853500 0.000247
29.863400 0.000247
29.873300 0.000247
29.883200 0.000247
29.893100 0.000246
29.903000 0.000246
29.912900 0.000246
29.922800 0.000246
29.932700 0.000246
29.942600 0.000246
29.952500 0.000245
29.962400 0.000245
29.972300 0.000245
29.982200 0.000245
29.992100 0.000245
30.002000 0.000245
30.011900 0.000244
30.021800 0.000244
30.031700 0.000244
30.041600 0.000244
30.051500 0.000244
30.061400 0.000244
30.071300 0.000243
30.081200 0.000243
30.091100 0.000243
30.101000 0.000243
30.110900 0.000243
30.120800 0.000243
30.130700 0.000242
30.140600 0.000242
30.150500 0.000242
30.160400 0.000242
30.170300 0.000242
30.180200 0.000241
30.190100 0.000241
30.200000 0.000241
30.209900 0.000241
30.219800 0.000241
30.229700 0.000241
30.239600 0.000240
30.249500 0.000240
30.259400 0.000240
30.269300 0.000240
30.279200 0.000240
30.289100 0.000240
30.299000 0.000239
30.308900 0.000239
30.318800 0.000239
30.328700 0.000239
30.338600 0.000239
30.348500 0.000239
30.358400 0.000238
30.368300 0.000238
30.378200 0.000238
30.388100 0.000238
30.398000 0.000238
30.407900 0.000238
30.417800 0.000237
30.427700 0.000237
30.437600 0.000237
30.447500 0.000237
30.457400 0.000237
30.467300 0.000237
30.477200 0.000237
30.487100 0.000236
30.497000 0.000236
30.506900 0.000236
30.516800 0.000236
30.526700 0.000236
30.536600 0.000236
30.546500 0.000235
30.556400 0.000235
30.566300 0.000235
30.576200 0.000235
30.586100 0.000235
30.596000 0.000235
30.605900 0.000234
30.615800 0.000234
30.625700 0.000234
30.635600 0.000234
30.645500 0.000234
30.655400 0.000234
30.665300 0.000233
30.675200 0.000233
30.685100 0.000233
30.695000 0.000233
30.704900 0.000233
30.714800 0.000233
30.724700 0.000232
30.734600 0.000232
30.744500 0.000232
30.754400 0.000232
30.764300 0.000232
30.774200 0.000232
30.784100 0.000232
30.794000 0.000231
30.803900 0.000231
30.813800 0.000231
30.823700 0.000231
30.833600 0.000231
30.843500 0.000231
30.853400 0.000230
30.863300 0.000230
30.873200 0.000230
30.883100 0.000230
30.893000 0.000230
30.902900 0.000230
30.912800 0.000229
30.922700 0.000229
30.932600 0.000229
30.942500 0.000229
30.952400 0.000229
30.962300 0.000229
30.972200 0.000229
30.982100 0.000228
30.992000 0.000228
31.001900 0.000228
31.011800 0.000228
31.021700 0.000228
31.031600 0.000228
31.041500 0.000227
31.051400 0.000227
31.061300 0.000227
31.071200 0.000227
31.081100 0.000227
31.091000 0.000227
31.100900 0.000227
31.110800 0.000226
31.120700 0.000226
31.130600 0.000226
31.140500 0.000226
31.150400 0.000226
31.160300 0.000226
31.170200 0.000225
31.180100 0.000225
31.190000 0.000225
31.199900 0.000225
31.209800 0.000225
31.219700 0.000225
31.229600 0.000225
31.239500 0.000224
31.249400 0.000224
31.259300 0.000224
31.269200 0.000224
31.279100 0.000224
31.289000 0.000224
31.298900 0.000223
31.308800 0.000223
31.318700 0.000223
31.328600 0.000223
31.338500 0.000223
31.348400 0.000223
31.358300 0.000223
31.368200 0.000222
31.378100 0.000222
31.388000 0.000222
31.397900 0.000222
31.407800 0.000222
31.417700 0.000222
31.427600 0.000222
31.437500 0.000221
31.447400 0.000221
31.457300 0.000221
31.467200 0.000221
31.477100 0.000221
31.487000 0.000221
31.496900 0.000221
31.506800 0.000220
31.516700 0.000220
31.526600 0.000220
31.536500 0.000220
31.546400 0.000220
31.556300 0.000220
31.566200 0.000219
31.576100 0.000219
31.586000 0.000219
31.595900 0.000219
31.605800 0.000219
31.615700 0.000219
31.625600 0.000219
31.635500 0.000218
31.645400 0.000218
31.655300 0.000218
31.665200 0.000218
31.675100 0.000218
31.685000 0.000218
31.694900 0.000218
31.704800 0.000217
31.714700 0.000217
31.724600 0.000217
31.734500 0.000217
31.744400 0.000217
31.754300 0.000217
31.764200 0.000217
31.774100 0.000216
31.784000 0.000216
31.793900 0.000216
31.803800 0.000216
31.813700 0.000216
31.823600 0.000216
31.833500 0.000216
31.843400 0.000215
31.853300 0.000215
31.863200 0.000215
31.873100 0.000215
31.883000 0.000215
31.892900 0.000215
31.902800 0.000215
31.912700 0.000214
31.922600 0.000214
31.932500 0.000214
31.942400 0.000214
31.952300 0.000214
31.962200 0.000214
31.972100 0.000214
31.982000 0.000213
31.991900 0.000213
32.001800 0.000213
32.011700 0.000213
32.021600 0.000213
32.031500 0.000213
32.041400 0.000213
32.051300 0.000212
32.061200 0.000212
32.071100 0.000212
32.081000 0.000212
32.090900 0.000212
32.100800 0.000212
32.110700 0.000212
32.120600 0.000212
32.130500 0.000211
32.140400 0.000211
32.150300 0.000211
32.160200 0.000211
32.170100 0.000211
32.180000 0.000211
32.189900 0.000211
32.199800 0.000210
32.209700 0.000210
32.219600 0.000210
32.229500 0.000210
32.239400 0.000210
32.249300 0.000210
32.259200 0.000210
32.269100 0.000209
32.279000 0.000209
32.288900 0.000209
32.298800 0.000209
32.308700 0.000209
32.318600 0.000209
32.328500 0.000209
32.338400 0.000209
32.348300 0.000208
32.358200 0.000208
32.368100 0.000208
32.378000 0.000208
32.387900 0.000208
32.397800 0.000208
32.407700 0.000208
32.417600 0.000207
32.427500 0.000207
32.437400 0.000207
32.447300 0.000207
32.457200 0.000207
32.467100 0.000207
32.477000 0.000207
32.486900 0.000207
32.496800 0.000206
32.506700 0.000206
32.516600 0.000206
32.526500 0.000206
32.536400 0.000206
32.546300 0.000206
32.556200 0.000206
32.566100 0.000205
32.576000 0.000205
32.585900 0.000205
32.595800 0.000205
32.605700 0.000205
32.615600 0.000205
32.625500 0.000205
32.635400 0.000205
32.645300 0.000204
32.655200 0.000204
32.665100 0.000204
32.675000 0.000204
32.684900 0.000204
32.694800 0.000204
32.704700 0.000204
32.714600 0.000203
32.724500 0.000203
32.734400 0.000203
32.744300 0.000203
32.754200 0.000203
32.764100 0.000203
32.774000 0.000203
32.783900 0.000203
32.793800 0.000202
32.803700 0.000202
32.813600 0.000202
32.823500 0.000202
32.833400 0.000202
32.843300 0.000202
32.853200 0.000202
32.863100 0.000202
32.873000 0.000201
32.882900 0.000201
32.892800 0.000201
32.902700 0.000201
32.912600 0.000201
32.922500 0.000201
32.932400 0.000201
32.942300 0.000201
32.952200 0.000200
32.962100 0.000200
32.972000 0.000200
32.981900 0.000200
32.991800 0.000200
33.001700 0.000200
33.011600 0.000200
33.021500 0.000200
33.031400 0.000199
33.041300 0.000199
33.051200 0.000199
33.061100 0.000199
33.071000 0.000199
33.080900 0.000199
33.090800 0.000199
33.100700 0.000199
33.110600 0.000198
33.120500 0.000198
33.130400 0.000198
33.140300 0.000198
33.150200 0.000198
33.160100 0.000198
33.170000 0.000198
33.179900 0.000198
33.189800 0.000197
33.199700 0.000197
33.209600 0.000197
33.219500 0.000197
33.229400 0.000197
33.239300 0.000197
33.249200 0.000197
33.259100 0.000197
33.269000 0.000196
33.278900 0.000196
33.288800 0.000196
33.298700 0.000196
33.308600 0.000196
33.318500 0.000196
33.328400 0.000196
33.338300 0.000196
33.348200 0.000195
33.358100 0.000195
33.368000 0.000195
33.377900 0.000195
33.387800 0.000195
33.397700 0.000195
33.407600 0.000195
33.417500 0.000195
33.427400 0.000194
33.437300 0.000194
33.447200 0.000194
33.457100 0.000194
33.467000 0.000194
33.476900 0.000194
33.486800 0.000194
33.496700 0.000194
33.506600 0.000193
33.516500 0.000193
33.526400 0.000193
33.536300 0.000193
33.546200 0.000193
33.556100 0.000193
33.566000 0.000193
33.575900 0.000193
33.585800 0.000193
33.595700 0.000192
33.605600 0.000192
33.615500 0.000192
33.625400 0.000192
33.635300 0.000192
33.645200 0.000192
33.655100 0.000192
33.665000 0.000192
33.674900 0.000191
33.684800 0.000191
33.694700 0.000191
33.704600 0.000191
33.714500 0.000191
33.724400 0.000191
33.734300 0.000191
33.744200 0.000191
33.754100 0.000190
33.764000 0.000190
33.773900 0.000190
33.783800 0.000190
33.793700 0.000190
33.803600 0.000190
33.813500 0.000190
33.823400 0.000190
33.833300 0.000190
33.843200 0.000189
33.853100 0.000189
33.863000 0.000189
33.872900 0.000189
33.882800 0.000189
33.892700 0.000189
33.902600 0.000189
33.912500 0.000189
33.922400 0.000189
33.932300 0.000188
33.942200 0.000188
33.952100 0.000188
33.962000 0.000188
33.971900 0.000188
33.981800 0.000188
33.991700 0.000188
34.001600 0.000188
34.011500 0.000187
34.021400 0.000187
34.031300 0.000187
34.041200 0.000187
34.051100 0.000187
34.061000 0.000187
34.070900 0.000187
34.080800 0.000187
34.090700 0.000187
34.100600 0.000186
34.110500 0.000186
34.120400 0.000186
34.130300 0.000186
34.140200 0.000186
34.150100 0.000186
34.160000 0.000186
34.169900 0.000186
34.179800 0.000186
34.189700 0.000185
34.199600 0.000185
34.209500 0.000185
34.219400 0.000185
34.229300 0.000185
34.239200 0.000185
34.249100 0.000185
34.259000 0.000185
34.268900 0.000185
34.278800 0.000184
34.288700 0.000184
34.298600 0.000184
34.308500 0.000184
34.318400 0.000184
34.328300 0.000184
34.338200 0.000184
34.348100 0.000184
34.358000 0.000184
34.367900 0.000183
34.377800 0.000183
34.387700 0.000183
34.397600 0.000183
34.407500 0.000183
34.417400 0.000183
34.427300 0.000183
34.437200 0.000183
34.447100 0.000183
34.457000 0.000182
34.466900 0.000182
34.476800 0.000182
34.486700 0.000182
34.496600 0.000182
34.506500 0.000182
34.516400 0.000182
34.526300 0.000182
34.536200 0.000182
34.546100 0.000181
34.556000 0.000181
34.565900 0.000181
34.575800 0.000181
34.585700 0.000181
34.595600 0.000181
34.605500 0.000181
34.615400 0.000181
34.625300 0.000181
34.635200 0.000180
34.645100 0.000180
34.655000 0.000180
34.664900 0.000180
34.674800 0.000180
34.684700 0.000180
34.694600 0.000180
34.704500 0.000180
34.714400 0.000180
34.724300 0.000179
34.734200 0.000179
34.744100 0.000179
34.754000 0.000179
34.763900 0.000179
34.773800 0.000179
34.783700 0.000179
34.793600 0.000179
34.803500 0.000179
34.813400 0.000179
34.823300 0.000178
34.833200 0.000178
34.843100 0.000178
34.853000 0.000178
34.862900 0.000178
34.872800 0.000178
34.882700 0.000178
34.892600 0.000178
34.902500 0.000178
34.912400 0.000177
34.922300 0.000177
34.932200 0.000177
34.942100 0.000177
34.952000 0.000177
34.961900 0.000177
34.971800 0.000177
34.981700 0.000177
34.991600 0.000177
35.001500 0.000177
35.011400 0.000176
35.021300 0.000176
35.031200 0.000176
35.041100 0.000176
35.051000 0.000176
35.060900 0.000176
35.070800 0.000176
35.080700 0.000176
35.090600 0.000176
35.100500 0.000175
35.110400 0.000175
35.120300 0.000175
35.130200 0.000175
35.140100 0.000175
35.150000 0.000175
35.159900 0.000175
35.169800 0.000175
35.179700 0.000175
35.189600 0.000175
35.199500 0.000174
35.209400 0.000174
35.219300 0.000174
35.229200 0.000174
35.239100 0.000174
35.249000 0.000174
35.258900 0.000174
35.268800 0.000174
35.278700 0.000174
35.288600 0.000174
35.298500 0.000173
35.308400 0.000173
35.318300 0.000173
35.328200 0.000173
35.338100 0.000173
35.348000 0.000173
35.357900 0.000173
35.367800 0.000173
35.377700 0.000173
35.387600 0.000172
35.397500 0.000172
35.407400 0.000172
35.417300 0.000172
35.427200 0.000172
35.437100 0.000172
35.447000 0.000172
35.456900 0.000172
35.466800 0.000172
35.476700 0.000172
35.486600 0.000171
35.496500 0.000171
35.506400 0.000171
35.516300 0.000171
35.526200 0.000171
35.536100 0.000171
35.546000 0.000171
35.555900 0.000171
35.565800 0.000171
35.575700 0.000171
35.585600 0.000170
35.595500 0.000170
35.605400 0.000170
35.615300 0.000170
35.625200 0.000170
35.635100 0.000170
35.645000 0.000170
35.654900 0.000170
35.664800 0.000170
35.674700 0.000170
35.684600 0.000170
35.694500 0.000169
35.704400 0.000169
35.714300 0.000169
35.724200 0.000169
35.734100 0.000169
35.744000 0.000169
35.753900 0.000169
35.763800 0.000169
35.773700 0.000169
35.783600 0.000169
35.793500 0.000168
35.803400 0.000168
35.813300 0.000168
35.823200 0.000168
35.833100 0.000168
35.843000 0.000168
35.852900 0.000168
35.862800 0.000168
35.872700 0.000168
35.882600 0.000168
35.892500 0.000167
35.902400 0.000167
35.912300 0.000167
35.922200 0.000167
35.932100 0.000167
35.942000 0.000167
35.951900 0.000167
35.961800 0.000167
35.971700 0.000167
35.981600 0.000167
35.991500 0.000166
36.001400 0.000166
36.011300 0.000166
36.021200 0.000166
36.031100 0.000166
36.041000 0.000166
36.050900 0.000166
36.060800 0.000166
36.070700 0.000166
36.080600 0.000166
36.090500 0.000166
36.100400 0.000165
36.110300 0.000165
36.120200 0.000165
36.130100 0.000165
36.140000 0.000165
36.149900 0.000165
36.159800 0.000165
36.169700 0.000165
36.179600 0.000165
36.189500 0.000165
36.199400 0.000164
36.209300 0.000164
36.219200 0.000164
36.229100 0.000164
36.239000 0.000164
36.248900 0.000164
36.258800 0.000164
36.268700 0.000164
36.278600 0.000164
36.288500 0.000164
36.298400 0.000164
36.308300 0.000163
36.318200 0.000163
36.328100 0.000163
36.338000 0.000163
36.347900 0.000163
36.357800 0.000163
36.367700 0.000163
36.377600 0.000163
36.387500 0.000163
36.397400 0.000163
36.407300 0.000163
36.417200 0.000162
36.427100 0.000162
36.437000 0.000162
36.446900 0.000162
36.456800 0.000162
36.466700 0.000162
36.476600 0.000162
36.486500 0.000162
36.496400 0.000162
36.506300 0.000162
36.516200 0.000162
36.526100 0.000161
36.536000 0.000161
36.545900 0.000161
36.555800 0.000161
36.565700 0.000161
36.575600 0.000161
36.585500 0.000161
36.595400 0.000161
36.605300 0.000161
36.615200 0.000161
36.625100 0.000161
36.635000 0.000160
36.644900 0.000160
36.654800 0.000160
36.664700 0.000160
36.674600 0.000160
36.684500 0.000160
36.694400 0.000160
36.704300 0.000160
36.714200 0.000160
36.724100 0.000160
36.734000 0.000160
36.743900 0.000159
36.753800 0.000159
36.763700 0.000159
36.773600 0.000159
36.783500 0.000159
36.793400 0.000159
36.803300 0.000159
36.813200 0.000159
36.823100 0.000159
36.833000 0.000159
36.842900 0.000159
36.852800 0.000158
36.862700 0.000158
36.872600 0.000158
36.882500 0.000158
36.892400 0.000158
36.902300 0.000158
36.912200 0.000158
36.922100 0.000158
36.932000 0.000158
36.941900 0.000158
36.951800 0.000158
36.961700 0.000157
36.971600 0.000157
36.981500 0.000157
36.991400 0.000157
37.001300 0.000157
37.011200 0.000157
37.021100 0.000157
37.031000 0.000157
37.040900 0.000157
37.050800 0.000157
37.060700 0.000157
37.070600 0.000157
37.080500 0.000156
37.090400 0.000156
37.100300 0.000156
37.110200 0.000156
37.120100 0.000156
37.130000 0.000156
37.139900 0.000156
37.149800 0.000156
37.159700 0.000156
37.169600 0.000156
37.179500 0.000156
37.189400 0.000155
37.199300 0.000155
37.209200 0.000155
37.219100 0.000155
37.229000 0.000155
37.238900 0.000155
37.248800 0.000155
37.258700 0.000155
37.268600 0.000155
37.278500 0.000155
37.288400 0.000155
37.298300 0.000155
37.308200 0.000154
37.318100 0.000154
37.328000 0.000154
37.337900 0.000154
37.347800 0.000154
37.357700 0.000154
37.367600 0.000154
37.377500 0.000154
37.387400 0.000154
37.397300 0.000154
37.407200 0.000154
37.417100 0.000154
37.427000 0.000153
37.436900 0.000153
37.446800 0.000153
37.456700 0.000153
37.466600 0.000153
37.476500 0.000153
37.486400 0.000153
37.496300 0.000153
37.506200 0.000153
37.516100 0.000153
37.526000 0.000153
37.535900 0.000153
37.545800 0.000152
37.555700 0.000152
37.565600 0.000152
37.575500 0.000152
37.585400 0.000152
37.595300 0.000152
37.605200 0.000152
37.615100 0.000152
37.625000 0.000152
37.634900 0.000152
37.644800 0.000152
37.654700 0.000152
37.664600 0.000151
37.674500 0.000151
37.684400 0.000151
37.694300 0.000151
37.704200 0.000151
37.714100 0.000151
37.724000 0.000151
37.733900 0.000151
37.743800 0.000151
37.753700 0.000151
37.763600 0.000151
37.773500 0.000151
37.783400 0.000150
37.793300 0.000150
37.803200 0.000150
37.813100 0.000150
37.823000 0.000150
37.832900 0.000150
37.842800 0.000150
37.852700 0.000150
37.862600 0.000150
37.872500 0.000150
37.882400 0.000150
37.892300 0.000150
37.902200 0.000149
37.912100 0.000149
37.922000 0.000149
37.931900 0.000149
37.941800 0.000149
37.951700 0.000149
37.961600 0.000149
37.971500 0.000149
37.981400 0.000149
37.991300 0.000149
38.001200 0.000149
38.011100 0.000149
38.021000 0.000148
38.030900 0.000148
38.040800 0.000148
38.050700 0.000148
38.060600 0.000148
38.070500 0.000148
38.080400 0.000148
38.090300 0.000148
38.100200 0.000148
38.110100 0.000148
38.120000 0.000148
38.129900 0.000148
38.139800 0.000148
38.149700 0.000147
38.159600 0.000147
38.169500 0.000147
38.179400 0.000147
38.189300 0.000147
38.199200 0.000147
38.209100 0.000147
38.219000 0.000147
38.228900 0.000147
38.238800 0.000147
38.248700 0.000147
38.258600 0.000147
38.268500 0.000146
38.278400 0.000146
38.288300 0.000146
38.298200 0.000146
38.308100 0.000146
38.318000 0.000146
38.327900 0.000146
38.337800 0.000146
38.347700 0.000146
38.357600 0.000146
38.367500 0.000146
38.377400 0.000146
38.387300 0.000146
38.397200 0.000145
38.407100 0.000145
38.417000 0.000145
38.426900 0.000145
38.436800 0.000145
38.446700 0.000145
38.456600 0.000145
38.466500 0.000145
38.476400 0.000145
38.486300 0.000145
38.496200 0.000145
38.506100 0.000145
38.516000 0.000145
38.525900 0.000144
38.535800 0.000144
38.545700 0.000144
38.555600 0.000144
38.565500 0.000144
38.575400 0.000144
38.585300 0.000144
38.595200 0.000144
38.605100 0.000144
38.615000 0.000144
38.624900 0.000144
38.634800 0.000144
38.644700 0.000144
38.654600 0.000143
38.664500 0.000143
38.674400 0.000143
38.684300 0.000143
38.694200 0.000143
38.704100 0.000143
38.714000 0.000143
38.723900 0.000143
38.733800 0.000143
38.743700 0.000143
38.753600 0.000143
38.763500 0.000143
38.773400 0.000143
38.783300 0.000142
38.793200 0.000142
38.803100 0.000142
38.813000 0.000142
38.822900 0.000142
38.832800 0.000142
38.842700 0.000142
38.852600 0.000142
38.862500 0.000142
38.872400 0.000142
38.882300 0.000142
38.892200 0.000142
38.902100 0.000142
38.912000 0.000142
38.921900 0.000141
38.931800 0.000141
38.941700 0.000141
38.951600 0.000141
38.961500 0.000141
38.971400 0.000141
38.981300 0.000141
38.991200 0.000141
39.001100 0.000141
39.011000 0.000141
39.020900 0.000141
39.030800 0.000141
39.040700 0.000141
39.050600 0.000140
39.060500 0.000140
39.070400 0.000140
39.080300 0.000140
39.090200 0.000140
39.100100 0.000140
39.110000 0.000140
39.119900 0.000140
39.129800 0.000140
39.139700 0.000140
39.149600 0.000140
39.159500 0.000140
39.169400 0.000140
39.179300 0.000140
39.189200 0.000139
39.199100 0.000139
39.209000 0.000139
39.218900 0.000139
39.228800 0.000139
39.238700 0.000139
39.248600 0.000139
39.258500 0.000139
39.268400 0.000139
39.278300 0.000139
39.288200 0.000139
39.298100 0.000139
39.308000 0.000139
39.317900 0.000138
39.327800 0.000138
39.337700 0.000138
39.347600 0.000138
39.357500 0.000138
39.367400 0.000138
39.377300 0.000138
39.387200 0.000138
39.397100 0.000138
39.407000 0.000138
39.416900 0.000138
39.426800 0.000138
39.436700 0.000138
39.446600 0.000138
39.456500 0.000137
39.466400 0.000137
39.476300 0.000137
39.486200 0.000137
39.496100 0.000137
39.506000 0.000137
39.515900 0.000137
39.525800 0.000137
39.535700 0.000137
39.545600 0.000137
39.555500 0.000137
39.565400 0.000137
39.575300 0.000137
39.585200 0.000137
39.595100 0.000136
39.605000 0.000136
39.614900 0.000136
39.624800 0.000136
39.634700 0.000136
39.644600 0.000136
39.654500 0.000136
39.664400 0.000136
39.674300 0.000136
39.684200 0.000136
39.694100 0.000136
39.704000 0.000136
39.713900 0.000136
39.723800 0.000136
39.733700 0.000135
39.743600 0.000135
39.753500 0.000135
39.763400 0.000135
39.773300 0.000135
39.783200 0.000135
39.793100 0.000135
39.803000 0.000135
39.812900 0.000135
39.822800 0.000135
39.832700 0.000135
39.842600 0.000135
39.852500 0.000135
39.862400 0.000135
39.872300 0.000135
39.882200 0.000134
39.892100 0.000134
39.902000 0.000134
39.911900 0.000134
39.921800 0.000134
39.931700 0.000134
39.941600 0.000134
39.951500 0.000134
39.961400 0.000134
39.971300 0.000134
39.981200 0.000134
39.991100 0.000134
40.001000 0.000134
40.010900 0.000134
40.020800 0.000133
40.030700 0.000133
40.040600 0.000133
40.050500 0.000133
40.060400 0.000133
40.070300 0.000133
40.080200 0.000133
40.090100 0.000133
40.100000 0.000133
40.109900 0.000133
40.119800 0.000133
40.129700 0.000133
40.139600 0.000133
40.149500 0.000133
40.159400 0.000133
40.169300 0.000132
40.179200 0.000132
40.189100 0.000132
40.199000 0.000132
40.208900 0.000132
40.218800 0.000132
40.228700 0.000132
40.238600 0.000132
40.248500 0.000132
40.258400 0.000132
40.268300 0.000132
40.278200 0.000132
40.288100 0.000132
40.298000 0.000132
40.307900 0.000132
40.317800 0.000131
40.327700 0.000131
40.337600 0.000131
40.347500 0.000131
40.357400 0.000131
40.367300 0.000131
40.377200 0.000131
40.387100 0.000131
40.397000 0.000131
40.406900 0.000131
40.416800 0.000131
40.426700 0.000131
40.436600 0.000131
40.446500 0.000131
40.456400 0.000131
40.466300 0.000130
40.476200 0.000130
40.486100 0.000130
40.496000 0.000130
40.505900 0.000130
40.515800 0.000130
40.525700 0.000130
40.535600 0.000130
40.545500 0.000130
40.555400 0.000130
40.565300 0.000130
40.575200 0.000130
40.585100 0.000130
40.595000 0.000130
40.604900 0.000130
40.614800 0.000129
40.624700 0.000129
40.634600 0.000129
40.644500 0.000129
40.654400 0.000129
40.664300 0.000129
40.674200 0.000129
40.684100 0.000129
40.694000 0.000129
40.703900 0.000129
40.713800 0.000129
40.723700 0.000129
40.733600 0.000129
40.743500 0.000129
40.753400 0.000129
40.763300 0.000129
40.773200 0.000128
40.783100 0.000128
40.793000 0.000128
40.802900 0.000128
40.812800 0.000128
40.822700 0.000128
40.832600 0.000128
40.842500 0.000128
40.852400 0.000128
40.862300 0.000128
40.872200 0.000128
40.882100 0.000128
40.892000 0.000128
40.901900 0.000128
40.911800 0.000128
40.921700 0.000127
40.931600 0.000127
40.941500 0.000127
40.951400 0.000127
40.961300 0.000127
40.971200 0.000127
40.981100 0.000127
40.991000 0.000127
41.000900 0.000127
41.010800 0.000127
41.020700 0.000127
41.030600 0.000127
41.040500 0.000127
41.050400 0.000127
41.060300 0.000127
41.070200 0.000127
41.080100 0.000126
41.090000 0.000126
41.099900 0.000126
41.109800 0.000126
41.119700 0.000126
41.129600 0.000126
41.139500 0.000126
41.149400 0.000126
41.159300 0.000126
41.169200 0.000126
41.179100 0.000126
41.189000 0.000126
41.198900 0.000126
41.208800 0.000126
41.218700 0.000126
41.228600 0.000126
41.238500 0.000125
41.248400 0.000125
41.258300 0.000125
41.268200 0.000125
41.278100 0.000125
41.288000 0.000125
41.297900 0.000125
41.307800 0.000125
41.317700 0.000125
41.327600 0.000125
41.337500 0.000125
41.347400 0.000125
41.357300 0.000125
41.367200 0.000125
41.377100 0.000125
41.387000 0.000125
41.396900 0.000124
41.406800 0.000124
41.416700 0.000124
41.426600 0.000124
41.436500 0.000124
41.446400 0.000124
41.456300 0.000124
41.466200 0.000124
41.476100 0.000124
41.486000 0.000124
41.495900 0.000124
41.505800 0.000124
41.515700 0.000124
41.525600 0.000124
41.535500 0.000124
41.545400 0.000124
41.555300 0.000123
41.565200 0.000123
41.575100 0.000123
41.585000 0.000123
41.594900 0.000123
41.604800 0.000123
41.614700 0.000123
41.624600 0.000123
41.634500 0.000123
41.644400 0.000123
41.654300 0.000123
41.664200 0.000123
41.674100 0.000123
41.684000 0.000123
41.693900 0.000123
41.703800 0.000123
41.713700 0.000123
41.723600 0.000122
41.733500 0.000122
41.743400 0.000122
41.753300 0.000122
41.763200 0.000122
41.773100 0.000122
41.783000 0.000122
41.792900 0.000122
41.802800 0.000122
41.812700 0.000122
41.822600 0.000122
41.832500 0.000122
41.842400 0.000122
41.852300 0.000122
41.862200 0.000122
41.872100 0.000122
41.882000 0.000122
41.891900 0.000121
41.901800 0.000121
41.911700 0.000121
41.921600 0.000121
41.931500 0.000121
41.941400 0.000121
41.951300 0.000121
41.961200 0.000121
41.971100 0.000121
41.981000 0.000121
41.990900 0.000121
42.000800 0.000121
42.010700 0.000121
42.020600 0.000121
42.030500 0.000121
42.040400 0.000121
42.050300 0.000121
42.060200 0.000120
42.070100 0.000120
42.080000 0.000120
42.089900 0.000120
42.099800 0.000120
42.109700 0.000120
42.119600 0.000120
42.129500 0.000120
42.139400 0.000120
42.149300 0.000120
42.159200 0.000120
42.169100 0.000120
42.179000 0.000120
42.188900 0.000120
42.198800 0.000120
42.208700 0.000120
42.218600 0.000120
42.228500 0.000119
42.238400 0.000119
42.248300 0.000119
42.258200 0.000119
42.268100 0.000119
42.278000 0.000119
42.287900 0.000119
42.297800 0.000119
42.307700 0.000119
42.317600 0.000119
42.327500 0.000119
42.337400 0.000119
42.347300 0.000119
42.357200 0.000119
42.367100 0.000119
42.377000 0.000119
42.386900 0.000119
42.396800 0.000118
42.406700 0.000118
42.416600 0.000118
42.426500 0.000118
42.436400 0.000118
42.446300 0.000118
42.456200 0.000118
42.466100 0.000118
42.476000 0.000118
42.485900 0.000118
42.495800 0.000118
42.505700 0.000118
42.515600 0.000118
42.525500 0.000118
42.535400 0.000118
42.545300 0.000118
42.555200 0.000118
42.565100 0.000118
42.575000 0.000117
42.584900 0.000117
42.594800 0.000117
42.604700 0.000117
42.614600 0.000117
42.624500 0.000117
42.634400 0.000117
42.644300 0.000117
42.654200 0.000117
42.664100 0.000117
42.674000 0.000117
42.683900 0.000117
42.693800 0.000117
42.703700 0.000117
42.713600 0.000117
42.723500 0.000117
42.733400 0.000117
42.743300 0.000117
42.753200 0.000116
42.763100 0.000116
42.773000 0.000116
42.782900 0.000116
42.792800 0.000116
42.802700 0.000116
42.812600 0.000116
42.822500 0.000116
42.832400 0.000116
42.842300 0.000116
42.852200 0.000116
42.862100 0.000116
42.872000 0.000116
42.881900 0.000116
42.891800 0.000116
42.901700 0.000116
42.911600 0.000116
42.921500 0.000116
42.931400 0.000115
42.941300 0.000115
42.951200 0.000115
42.961100 0.000115
42.971000 0.000115
42.980900 0.000115
42.990800 0.000115
43.000700 0.000115
43.010600 0.000115
43.020500 0.000115
43.030400 0.000115
43.040300 0.000115
43.050200 0.000115
43.060100 0.000115
43.070000 0.000115
43.079900 0.000115
43.089800 0.000115
43.099700 0.000115
43.109600 0.000114
43.119500 0.000114
43.129400 0.000114
43.139300 0.000114
43.149200 0.000114
43.159100 0.000114
43.169000 0.000114
43.178900 0.000114
43.188800 0.000114
43.198700 0.000114
43.208600 0.000114
43.218500 0.000114
43.228400 0.000114
43.238300 0.000114
43.248200 0.000114
43.258100 0.000114
43.268000 0.000114
43.277900 0.000114
43.287800 0.000114
43.297700 0.000113
43.307600 0.000113
43.317500 0.000113
43.327400 0.000113
43.337300 0.000113
43.347200 0.000113
43.357100 0.000113
43.367000 0.000113
43.376900 0.000113
43.386800 0.000113
43.396700 0.000113
43.406600 0.000113
43.416500 0.000113
43.426400 0.000113
43.436300 0.000113
43.446200 0.000113
43.456100 0.000113
43.466000 0.000113
43.475900 0.000112
43.485800 0.000112
43.495700 0.000112
43.505600 0.000112
43.515500 0.000112
43.525400 0.000112
43.535300 0.000112
43.545200 0.000112
43.555100 0.000112
43.565000 0.000112
43.574900 0.000112
43.584800 0.000112
43.594700 0.000112
43.604600 0.000112
43.614500 0.000112
43.624400 0.000112
43.634300 0.000112
43.644200 0.000112
43.654100 0.000112
43.664000 0.000111
43.673900 0.000111
43.683800 0.000111
43.693700 0.000111
43.703600 0.000111
43.713500 0.000111
43.723400 0.000111
43.733300 0.000111
43.743200 0.000111
43.753100 0.000111
43.763000 0.000111
43.772900 0.000111
43.782800 0.000111
43.792700 0.000111
43.802600 0.000111
43.812500 0.000111
43.822400 0.000111
43.832300 0.000111
43.842200 0.000111
43.852100 0.000111
43.862000 0.000110
43.871900 0.000110
43.881800 0.000110
43.891700 0.000110
43.901600 0.000110
43.911500 0.000110
43.921400 0.000110
43.931300 0.000110
43.941200 0.000110
43.951100 0.000110
43.961000 0.000110
43.970900 0.000110
43.980800 0.000110
43.990700 0.000110
44.000600 0.000110
44.010500 0.000110
44.020400 0.000110
44.030300 0.000110
44.040200 0.000110
44.050100 0.000109
44.060000 0.000109
44.069900 0.000109
44.079800 0.000109
44.089700 0.000109
44.099600 0.000109
44.109500 0.000109
44.119400 0.000109
44.129300 0.000109
44.139200 0.000109
44.149100 0.000109
44.159000 0.000109
44.168900 0.000109
44.178800 0.000109
44.188700 0.000109
44.198600 0.000109
44.208500 0.000109
44.218400 0.000109
44.228300 0.000109
44.238200 0.000109
44.248100 0.000108
44.258000 0.000108
44.267900 0.000108
44.277800 0.000108
44.287700 0.000108
44.297600 0.000108
44.307500 0.000108
44.317400 0.000108
44.327300 0.000108
44.337200 0.000108
44.347100 0.000108
44.357000 0.000108
44.366900 0.000108
44.376800 0.000108
44.386700 0.000108
44.396600 0.000108
44.406500 0.000108
44.416400 0.000108
44.426300 0.000108
44.436200 0.000108
44.446100 0.000107
44.456000 0.000107
44.465900 0.000107
44.475800 0.000107
44.485700 0.000107
44.495600 0.000107
44.505500 0.000107
44.515400 0.000107
44.525300 0.000107
44.535200 0.000107
44.545100 0.000107
44.555000 0.000107
44.564900 0.000107
44.574800 0.000107
44.584700 0.000107
44.594600 0.000107
44.604500 0.000107
44.614400 0.000107
44.624300 0.000107
44.634200 0.000107
44.644100 0.000107
44.654000 0.000106
44.663900 0.000106
44.673800 0.000106
44.683700 0.000106
44.693600 0.000106
44.703500 0.000106
44.713400 0.000106
44.723300 0.000106
44.733200 0.000106
44.743100 0.000106
44.753000 0.000106
44.762900 0.000106
44.772800 0.000106
44.782700 0.000106
44.792600 0.000106
44.802500 0.000106
44.812400 0.000106
44.822300 0.000106
44.832200 0.000106
44.842100 0.000106
44.852000 0.000106
44.861900 0.000105
44.871800 0.000105
44.881700 0.000105
44.891600 0.000105
44.901500 0.000105
44.911400 0.000105
44.921300 0.000105
44.931200 0.000105
44.941100 0.000105
44.951000 0.000105
44.960900 0.000105
44.970800 0.000105
44.980700 0.000105
44.990600 0.000105
45.000500 0.000105
45.010400 0.000105
45.020300 0.000105
45.030200 0.000105
45.040100 0.000105
45.050000 0.000105
45.059900 0.000105
45.069800 0.000104
45.079700 0.000104
45.089600 0.000104
45.099500 0.000104
45.109400 0.000104
45.119300 0.000104
45.129200 0.000104
45.139100 0.000104
45.149000 0.000104
45.158900 0.000104
45.168800 0.000104
45.178700 0.000104
45.188600 0.000104
45.198500 0.000104
45.208400 0.000104
45.218300 0.000104
45.228200 0.000104
45.238100 0.000104
45.248000 0.000104
45.257900 0.000104
45.267800 0.000104
45.277700 0.000103
45.287600 0.000103
45.297500 0.000103
45.307400 0.000103
45.317300 0.000103
45.327200 0.000103
45.337100 0.000103
45.347000 0.000103
45.356900 0.000103
45.366800 0.000103
45.376700 0.000103
45.386600 0.000103
45.396500 0.000103
45.406400 0.000103
45.416300 0.000103
45.426200 0.000103
45.436100 0.000103
45.446000 0.000103
45.455900 0.000103
45.465800 0.000103
45.475700 0.000103
45.485600 0.000103
45.495500 0.000102
45.505400 0.000102
45.515300 0.000102
45.525200 0.000102
45.535100 0.000102
45.545000 0.000102
45.554900 0.000102
45.564800 0.000102
45.574700 0.000102
45.584600 0.000102
45.594500 0.000102
45.604400 0.000102
45.614300 0.000102
45.624200 0.000102
45.634100 0.000102
45.644000 0.000102
45.653900 0.000102
45.663800 0.000102
45.673700 0.000102
45.683600 0.000102
45.693500 0.000102
45.703400 0.000101
45.713300 0.000101
45.723200 0.000101
45.733100 0.000101
45.743000 0.000101
45.752900 0.000101
45.762800 0.000101
45.772700 0.000101
45.782600 0.000101
45.792500 0.000101
45.802400 0.000101
45.812300 0.000101
45.822200 0.000101
45.832100 0.000101
45.842000 0.000101
45.851900 0.000101
45.861800 0.000101
45.871700 0.000101
45.881600 0.000101
45.891500 0.000101
45.901400 0.000101
45.911300 0.000101
45.921200 0.000101
45.931100 0.000100
45.941000 0.000100
45.950900 0.000100
45.960800 0.000100
45.970700 0.000100
45.980600 0.000100
45.990500 0.000100
46.000400 0.000100
46.010300 0.000100
46.020200 0.000100
46.030100 0.000100
46.040000 0.000100
46.049900 0.000100
46.059800 0.000100
46.069700 0.000100
46.079600 0.000100
46.089500 0.000100
46.099400 0.000100
46.109300 0.000100
46.119200 0.000100
46.129100 0.000100
46.139000 0.000100
46.148900 0.000099
46.158800 0.000099
46.168700 0.000099
46.178600 0.000099
46.188500 0.000099
46.198400 0.000099
46.208300 0.000099
46.218200 0.000099
46.228100 0.000099
46.238000 0.000099
46.247900 0.000099
46.257800 0.000099
46.267700 0.000099
46.277600 0.000099
46.287500 0.000099
46.297400 0.000099
46.307300 0.000099
46.317200 0.000099
46.327100 0.000099
46.337000 0.000099
46.346900 0.000099
46.356800 0.000099
46.366700 0.000099
46.376600 0.000098
46.386500 0.000098
46.396400 0.000098
46.406300 0.000098
46.416200 0.000098
46.426100 0.000098
46.436000 0.000098
46.445900 0.000098
46.455800 0.000098
46.465700 0.000098
46.475600 0.000098
46.485500 0.000098
46.495400 0.000098
46.505300 0.000098
46.515200 0.000098
46.525100 0.000098
46.535000 0.000098
46.544900 0.000098
46.554800 0.000098
46.564700 0.000098
46.574600 0.000098
46.584500 0.000098
46.594400 0.000098
46.604300 0.000098
46.614200 0.000097
46.624100 0.000097
46.634000 0.000097
46.643900 0.000097
46.653800 0.000097
46.663700 0.000097
46.673600 0.000097
46.683500 0.000097
46.693400 0.000097
46.703300 0.000097
46.713200 0.000097
46.723100 0.000097
46.733000 0.000097
46.742900 0.000097
46.752800 0.000097
46.762700 0.000097
46.772600 0.000097
46.782500 0.000097
46.792400 0.000097
46.802300 0.000097
46.812200 0.000097
46.822100 0.000097
46.832000 0.000097
46.841900 0.000096
46.851800 0.000096
46.861700 0.000096
46.871600 0.000096
46.881500 0.000096
46.891400 0.000096
46.901300 0.000096
46.911200 0.000096
46.921100 0.000096
46.931000 0.000096
46.940900 0.000096
46.950800 0.000096
46.960700 0.000096
46.970600 0.000096
46.980500 0.000096
46.990400 0.000096
47.000300 0.000096
47.010200 0.000096
47.020100 0.000096
47.030000 0.000096
47.039900 0.000096
47.049800 0.000096
47.059700 0.000096
47.069600 0.000096
47.079500 0.000096
47.089400 0.000095
47.099300 0.000095
47.109200 0.000095
47.119100 0.000095
47.129000 0.000095
47.138900 0.000095
47.148800 0.000095
47.158700 0.000095
47.168600 0.000095
47.178500 0.000095
47.188400 0.000095
47.198300 0.000095
47.208200 0.000095
47.218100 0.000095
47.228000 0.000095
47.237900 0.000095
47.247800 0.000095
47.257700 0.000095
47.267600 0.000095
47.277500 0.000095
47.287400 0.000095
47.297300 0.000095
47.307200 0.000095
47.317100 0.000095
47.327000 0.000094
47.336900 0.000094
47.346800 0.000094
47.356700 0.000094
47.366600 0.000094
47.376500 0.000094
47.386400 0.000094
47.396300 0.000094
47.406200 0.000094
47.416100 0.000094
47.426000 0.000094
47.435900 0.000094
47.445800 0.000094
47.455700 0.000094
47.465600 0.000094
47.475500 0.000094
47.485400 0.000094
47.495300 0.000094
47.505200 0.000094
47.515100 0.000094
47.525000 0.000094
47.534900 0.000094
47.544800 0.000094
47.554700 0.000094
47.564600 0.000094
47.574500 0.000093
47.584400 0.000093
47.594300 0.000093
47.604200 0.000093
47.614100 0.000093
47.624000 0.000093
47.633900 0.000093
47.643800 0.000093
47.653700 0.000093
47.663600 0.000093
47.673500 0.000093
47.683400 0.000093
47.693300 0.000093
47.703200 0.000093
47.713100 0.000093
47.723000 0.000093
47.732900 0.000093
47.742800 0.000093
47.752700 0.000093
47.762600 0.000093
47.772500 0.000093
47.782400 0.000093
47.792300 0.000093
47.802200 0.000093
47.812100 0.000093
47.822000 0.000092
47.831900 0.000092
47.841800 0.000092
47.851700 0.000092
47.861600 0.000092
47.871500 0.000092
47.881400 0.000092
47.891300 0.000092
47.901200 0.000092
47.911100 0.000092
47.921000 0.000092
47.930900 0.000092
47.940800 0.000092
47.950700 0.000092
47.960600 0.000092
47.970500 0.000092
47.980400 0.000092
47.990300 0.000092
48.000200 0.000092
48.010100 0.000092
48.020000 0.000092
48.029900 0.000092
48.039800 0.000092
48.049700 0.000092
48.059600 0.000092
48.069500 0.000092
48.079400 0.000091
48.089300 0.000091
48.099200 0.000091
48.109100 0.000091
48.119000 0.000091
48.128900 0.000091
48.138800 0.000091
48.148700 0.000091
48.158600 0.000091
48.168500 0.000091
48.178400 0.000091
48.188300 0.000091
48.198200 0.000091
48.208100 0.000091
48.218000 0.000091
48.227900 0.000091
48.237800 0.000091
48.247700 0.000091
48.257600 0.000091
48.267500 0.000091
48.277400 0.000091
48.287300 0.000091
48.297200 0.000091
48.307100 0.000091
48.317000 0.000091
48.326900 0.000091
48.336800 0.000090
48.346700 0.000090
48.356600 0.000090
48.366500 0.000090
48.376400 0.000090
48.386300 0.000090
48.396200 0.000090
48.406100 0.000090
48.416000 0.000090
48.425900 0.000090
48.435800 0.000090
48.445700 0.000090
48.455600 0.000090
48.465500 0.000090
48.475400 0.000090
48.485300 0.000090
48.495200 0.000090
48.505100 0.000090
48.515000 0.000090
48.524900 0.000090
48.534800 0.000090
48.544700 0.000090
48.554600 0.000090
48.564500 0.000090
48.574400 0.000090
48.584300 0.000090
48.594200 0.000089
48.604100 0.000089
48.614000 0.000089
48.623900 0.000089
48.633800 0.000089
48.643700 0.000089
48.653600 0.000089
48.663500 0.000089
48.673400 0.000089
48.683300 0.000089
48.693200 0.000089
48.703100 0.000089
48.713000 0.000089
48.722900 0.000089
48.732800 0.000089
48.742700 0.000089
48.752600 0.000089
48.762500 0.000089
48.772400 0.000089
48.782300 0.000089
48.792200 0.000089
48.802100 0.000089
48.812000 0.000089
48.821900 0.000089
48.831800 0.000089
48.841700 0.000089
48.851600 0.000089
48.861500 0.000088
48.871400 0.000088
48.881300 0.000088
48.891200 0.000088
48.901100 0.000088
48.911000 0.000088
48.920900 0.000088
48.930800 0.000088
48.940700 0.000088
48.950600 0.000088
48.960500 0.000088
48.970400 0.000088
48.980300 0.000088
48.990200 0.000088
49.000100 0.000088
49.010000 0.000088
49.019900 0.000088
49.029800 0.000088
49.039700 0.000088
49.049600 0.000088
49.059500 0.000088
49.069400 0.000088
49.079300 0.000088
49.089200 0.000088
49.099100 0.000088
49.109000 0.000088
49.118900 0.000088
49.128800 0.000088
49.138700 0.000087
49.148600 0.000087
49.158500 0.000087
49.168400 0.000087
49.178300 0.000087
49.188200 0.000087
49.198100 0.000087
49.208000 0.000087
49.217900 0.000087
49.227800 0.000087
49.237700 0.000087
49.247600 0.000087
49.257500 0.000087
49.267400 0.000087
49.277300 0.000087
49.287200 0.000087
49.297100 0.000087
49.307000 0.000087
49.316900 0.000087
49.326800 0.000087
49.336700 0.000087
49.346600 0.000087
49.356500 0.000087
49.366400 0.000087
49.376300 0.000087
49.386200 0.000087
49.396100 0.000087
49.406000 0.000087
49.415900 0.000086
49.425800 0.000086
49.435700 0.000086
49.445600 0.000086
49.455500 0.000086
49.465400 0.000086
49.475300 0.000086
49.485200 0.000086
49.495100 0.000086
49.505000 0.000086
49.514900 0.000086
49.524800 0.000086
49.534700 0.000086
49.544600 0.000086
49.554500 0.000086
49.564400 0.000086
49.574300 0.000086
49.584200 0.000086
49.594100 0.000086
49.604000 0.000086
49.613900 0.000086
49.623800 0.000086
49.633700 0.000086
49.643600 0.000086
49.653500 0.000086
49.663400 0.000086
49.673300 0.000086
49.683200 0.000086
49.693100 0.000085
49.703000 0.000085
49.712900 0.000085
49.722800 0.000085
49.732700 0.000085
49.742600 0.000085
49.752500 0.000085
49.762400 0.000085
49.772300 0.000085
49.782200 0.000085
49.792100 0.000085
49.802000 0.000085
49.811900 0.000085
49.821800 0.000085
49.831700 0.000085
49.841600 0.000085
49.851500 0.000085
49.861400 0.000085
49.871300 0.000085
49.881200 0.000085
49.891100 0.000085
49.901000 0.000085
49.910900 0.000085
49.920800 0.000085
49.930700 0.000085
49.940600 0.000085
49.950500 0.000085
49.960400 0.000085
49.970300 0.000085
49.980200 0.000084
49.990100 0.000084
50.000000 0.000084
