# Random transverse-field Ising model
# L=22, J=1=gamma, W_J=0.2, W=1.0
# High-T dynamical energy conductivity sigma^E(omega); via MCLM
# omega/J sigma^E(omega)

0.000000 2.460347
0.000500 2.459405
0.001000 2.456675
0.001500 2.452434
0.002000 2.447110
0.002500 2.441245
0.003000 2.435431
0.003500 2.430252
0.004000 2.426221
0.004500 2.423722
0.005000 2.422968
0.005500 2.423979
0.006000 2.426576
0.006500 2.430406
0.007000 2.434972
0.007500 2.439697
0.008000 2.443980
0.008500 2.447267
0.009000 2.449113
0.009500 2.449227
0.010000 2.447511
0.010500 2.444066
0.011000 2.439187
0.011500 2.433332
0.012000 2.427073
0.012500 2.421039
0.013000 2.415845
0.013500 2.412033
0.014000 2.410008
0.014500 2.410004
0.015000 2.412055
0.015500 2.415992
0.016000 2.421463
0.016500 2.427971
0.017000 2.434920
0.017500 2.441687
0.018000 2.447678
0.018500 2.452397
0.019000 2.455495
0.019500 2.456805
0.020000 2.456360
0.020500 2.454386
0.021000 2.451279
0.021500 2.447561
0.022000 2.443819
0.022500 2.440642
0.023000 2.438552
0.023500 2.437948
0.024000 2.439054
0.024500 2.441901
0.025000 2.446313
0.025500 2.451930
0.026000 2.458247
0.026500 2.464663
0.027000 2.470552
0.027500 2.475331
0.028000 2.478526
0.028500 2.479820
0.029000 2.479096
0.029500 2.476446
0.030000 2.472165
0.030500 2.466718
0.031000 2.460692
0.031500 2.454736
0.032000 2.449485
0.032500 2.445499
0.033000 2.443199
0.033500 2.442826
0.034000 2.444415
0.034500 2.447795
0.035000 2.452601
0.035500 2.458321
0.036000 2.464347
0.036500 2.470038
0.037000 2.474796
0.037500 2.478121
0.038000 2.479671
0.038500 2.479293
0.039000 2.477044
0.039500 2.473176
0.040000 2.468117
0.040500 2.462422
0.041000 2.456708
0.041500 2.451596
0.042000 2.447636
0.042500 2.445250
0.043000 2.444686
0.043500 2.445990
0.044000 2.449003
0.044500 2.453373
0.045000 2.458596
0.045500 2.464068
0.046000 2.469155
0.046500 2.473256
0.047000 2.475875
0.047500 2.476674
0.048000 2.475511
0.048500 2.472454
0.049000 2.467776
0.049500 2.461926
0.050000 2.455480
0.050500 2.449082
0.051000 2.443373
0.051500 2.438923
0.052000 2.436176
0.052500 2.435400
0.053000 2.436663
0.053500 2.439825
0.054000 2.444559
0.054500 2.450379
0.055000 2.456701
0.055500 2.462898
0.056000 2.468374
0.056500 2.472622
0.057000 2.475283
0.057500 2.476181
0.058000 2.475341
0.058500 2.472987
0.059000 2.469518
0.059500 2.465467
0.060000 2.461437
0.060500 2.458045
0.061000 2.455847
0.061500 2.455281
0.062000 2.456617
0.062500 2.459929
0.063000 2.465083
0.063500 2.471750
0.064000 2.479438
0.064500 2.487545
0.065000 2.495420
0.065500 2.502433
0.066000 2.508038
0.066500 2.511835
0.067000 2.513605
0.067500 2.513338
0.068000 2.511231
0.068500 2.507665
0.069000 2.503169
0.069500 2.498364
0.070000 2.493891
0.070500 2.490348
0.071000 2.488223
0.071500 2.487843
0.072000 2.489336
0.072500 2.492621
0.073000 2.497414
0.073500 2.503259
0.074000 2.509580
0.074500 2.515742
0.075000 2.521121
0.075500 2.525174
0.076000 2.527499
0.076500 2.527878
0.077000 2.526301
0.077500 2.522968
0.078000 2.518265
0.078500 2.512726
0.079000 2.506968
0.079500 2.501627
0.080000 2.497287
0.080500 2.494418
0.081000 2.493322
0.081500 2.494103
0.082000 2.496657
0.082500 2.500683
0.083000 2.505719
0.083500 2.511193
0.084000 2.516485
0.084500 2.520996
0.085000 2.524213
0.085500 2.525765
0.086000 2.525461
0.086500 2.523313
0.087000 2.519530
0.087500 2.514500
0.088000 2.508749
0.088500 2.502882
0.089000 2.497523
0.089500 2.493243
0.090000 2.490502
0.090500 2.489594
0.091000 2.490621
0.091500 2.493477
0.092000 2.497860
0.092500 2.503301
0.093000 2.509218
0.093500 2.514972
0.094000 2.519938
0.094500 2.523568
0.095000 2.525452
0.095500 2.525359
0.096000 2.523261
0.096500 2.519339
0.097000 2.513966
0.097500 2.507667
0.098000 2.501066
0.098500 2.494819
0.099000 2.489545
0.099500 2.485760
0.100000 2.483823
0.100500 2.483897
0.101000 2.485935
0.101500 2.489685
0.102000 2.494718
0.102500 2.500473
0.103000 2.506320
0.103500 2.511629
0.104000 2.515837
0.104500 2.518513
0.105000 2.519403
0.105500 2.518456
0.106000 2.515835
0.106500 2.511891
0.107000 2.507131
0.107500 2.502158
0.108000 2.497606
0.108500 2.494066
0.109000 2.492027
0.109500 2.491813
0.110000 2.493556
0.110500 2.497173
0.111000 2.502376
0.111500 2.508701
0.112000 2.515556
0.112500 2.522281
0.113000 2.528222
0.113500 2.532802
0.114000 2.535578
0.114500 2.536295
0.115000 2.534913
0.115500 2.531612
0.116000 2.526771
0.116500 2.520932
0.117000 2.514744
0.117500 2.508888
0.118000 2.504009
0.118500 2.500650
0.119000 2.499192
0.119500 2.499817
0.120000 2.502494
0.120500 2.506975
0.121000 2.512831
0.121500 2.519491
0.122000 2.526303
0.122500 2.532609
0.123000 2.537810
0.123500 2.541432
0.124000 2.543183
0.124500 2.542979
0.125000 2.540957
0.125500 2.537459
0.126000 2.532998
0.126500 2.528199
0.127000 2.523731
0.127500 2.520235
0.128000 2.518253
0.128500 2.518169
0.129000 2.520168
0.129500 2.524218
0.130000 2.530067
0.130500 2.537270
0.131000 2.545237
0.131500 2.553290
0.132000 2.560737
0.132500 2.566947
0.133000 2.571420
0.133500 2.573838
0.134000 2.574104
0.134500 2.572350
0.135000 2.568925
0.135500 2.564349
0.136000 2.559264
0.136500 2.554352
0.137000 2.550268
0.137500 2.547563
0.138000 2.546629
0.138500 2.547657
0.139000 2.550617
0.139500 2.555266
0.140000 2.561174
0.140500 2.567772
0.141000 2.574416
0.141500 2.580456
0.142000 2.585312
0.142500 2.588536
0.143000 2.589859
0.143500 2.589227
0.144000 2.586804
0.144500 2.582957
0.145000 2.578215
0.145500 2.573217
0.146000 2.568641
0.146500 2.565129
0.147000 2.563222
0.147500 2.563301
0.148000 2.565540
0.148500 2.569894
0.149000 2.576096
0.149500 2.583680
0.150000 2.592033
0.150500 2.600450
0.151000 2.608212
0.151500 2.614655
0.152000 2.619242
0.152500 2.621618
0.153000 2.621645
0.153500 2.619416
0.154000 2.615245
0.154500 2.609629
0.155000 2.603199
0.155500 2.596651
0.156000 2.590668
0.156500 2.585850
0.157000 2.582654
0.157500 2.581341
0.158000 2.581957
0.158500 2.584327
0.159000 2.588080
0.159500 2.592689
0.160000 2.597534
0.160500 2.601970
0.161000 2.605397
0.161500 2.607332
0.162000 2.607461
0.162500 2.605672
0.163000 2.602068
0.163500 2.596960
0.164000 2.590826
0.164500 2.584267
0.165000 2.577934
0.165500 2.572460
0.166000 2.568389
0.166500 2.566120
0.167000 2.565862
0.167500 2.567614
0.168000 2.571167
0.168500 2.576127
0.169000 2.581961
0.169500 2.588054
0.170000 2.593778
0.170500 2.598562
0.171000 2.601947
0.171500 2.603643
0.172000 2.603553
0.172500 2.601783
0.173000 2.598631
0.173500 2.594556
0.174000 2.590123
0.174500 2.585945
0.175000 2.582612
0.175500 2.580622
0.176000 2.580326
0.176500 2.581884
0.177000 2.585246
0.177500 2.590150
0.178000 2.596152
0.178500 2.602670
0.179000 2.609044
0.179500 2.614609
0.180000 2.618768
0.180500 2.621052
0.181000 2.621176
0.181500 2.619066
0.182000 2.614872
0.182500 2.608951
0.183000 2.601835
0.183500 2.594176
0.184000 2.586681
0.184500 2.580035
0.185000 2.574841
0.185500 2.571551
0.186000 2.570425
0.186500 2.571508
0.187000 2.574626
0.187500 2.579408
0.188000 2.585326
0.188500 2.591753
0.189000 2.598027
0.189500 2.603522
0.190000 2.607718
0.190500 2.610247
0.191000 2.610936
0.191500 2.609821
0.192000 2.607143
0.192500 2.603321
0.193000 2.598906
0.193500 2.594522
0.194000 2.590793
0.194500 2.588280
0.195000 2.587413
0.195500 2.588443
0.196000 2.591418
0.196500 2.596171
0.197000 2.602338
0.197500 2.609400
0.198000 2.616733
0.198500 2.623680
0.199000 2.629618
0.199500 2.634025
0.200000 2.636539
0.200500 2.635942
0.201000 2.633570
0.201500 2.629882
0.202000 2.625431
0.202500 2.620800
0.203000 2.616533
0.203500 2.613086
0.204000 2.610785
0.204500 2.609801
0.205000 2.610149
0.205500 2.611695
0.206000 2.614190
0.206500 2.617300
0.207000 2.620653
0.207500 2.623881
0.208000 2.626659
0.208500 2.628737
0.209000 2.629960
0.209500 2.630275
0.210000 2.629732
0.210500 2.628467
0.211000 2.626681
0.211500 2.624611
0.212000 2.622507
0.212500 2.620599
0.213000 2.619075
0.213500 2.618067
0.214000 2.617638
0.214500 2.617783
0.215000 2.618436
0.215500 2.619478
0.216000 2.620756
0.216500 2.622102
0.217000 2.623354
0.217500 2.624366
0.218000 2.625030
0.218500 2.625276
0.219000 2.625084
0.219500 2.624475
0.220000 2.623511
0.220500 2.622279
0.221000 2.620884
0.221500 2.619435
0.222000 2.618033
0.222500 2.616760
0.223000 2.615677
0.223500 2.614813
0.224000 2.614171
0.224500 2.613726
0.225000 2.613435
0.225500 2.613238
0.226000 2.613072
0.226500 2.612873
0.227000 2.612588
0.227500 2.612177
0.228000 2.611616
0.228500 2.610901
0.229000 2.610046
0.229500 2.609079
0.230000 2.608041
0.230500 2.606977
0.231000 2.605936
0.231500 2.604961
0.232000 2.604090
0.232500 2.603349
0.233000 2.602751
0.233500 2.602300
0.234000 2.601983
0.234500 2.601784
0.235000 2.601674
0.235500 2.601626
0.236000 2.601608
0.236500 2.601595
0.237000 2.601563
0.237500 2.601497
0.238000 2.601389
0.238500 2.601238
0.239000 2.601049
0.239500 2.600834
0.240000 2.600605
0.240500 2.600378
0.241000 2.600167
0.241500 2.599983
0.242000 2.599835
0.242500 2.599727
0.243000 2.599660
0.243500 2.599627
0.244000 2.599622
0.244500 2.599635
0.245000 2.599655
0.245500 2.599671
0.246000 2.599675
0.246500 2.599660
0.247000 2.599623
0.247500 2.599562
0.248000 2.599481
0.248500 2.599385
0.249000 2.599279
0.249500 2.599173
0.250000 2.599075
0.250500 2.598991
0.251000 2.598927
0.251500 2.598887
0.252000 2.598874
0.252500 2.598886
0.253000 2.598920
0.253500 2.598974
0.254000 2.599041
0.254500 2.599115
0.255000 2.599192
0.255500 2.599265
0.256000 2.599331
0.256500 2.599387
0.257000 2.599431
0.257500 2.599463
0.258000 2.599485
0.258500 2.599498
0.259000 2.599504
0.259500 2.599505
0.260000 2.599505
0.260500 2.599505
0.261000 2.599505
0.261500 2.599505
0.262000 2.599505
0.262500 2.599503
0.263000 2.599497
0.263500 2.599483
0.264000 2.599458
0.264500 2.599419
0.265000 2.599364
0.265500 2.599290
0.266000 2.599195
0.266500 2.599079
0.267000 2.598941
0.267500 2.598781
0.268000 2.598600
0.268500 2.598399
0.269000 2.598181
0.269500 2.597946
0.270000 2.597697
0.270500 2.597434
0.271000 2.597160
0.271500 2.596876
0.272000 2.596583
0.272500 2.596282
0.273000 2.595975
0.273500 2.595663
0.274000 2.595347
0.274500 2.595029
0.275000 2.594711
0.275500 2.594395
0.276000 2.594084
0.276500 2.593780
0.277000 2.593487
0.277500 2.593207
0.278000 2.592944
0.278500 2.592700
0.279000 2.592479
0.279500 2.592283
0.280000 2.592114
0.280500 2.591974
0.281000 2.591865
0.281500 2.591788
0.282000 2.591744
0.282500 2.591732
0.283000 2.591754
0.283500 2.591809
0.284000 2.591897
0.284500 2.592018
0.285000 2.592170
0.285500 2.592354
0.286000 2.592568
0.286500 2.592811
0.287000 2.593082
0.287500 2.593381
0.288000 2.593706
0.288500 2.594055
0.289000 2.594428
0.289500 2.594822
0.290000 2.595236
0.290500 2.595667
0.291000 2.596115
0.291500 2.596576
0.292000 2.597049
0.292500 2.597532
0.293000 2.598022
0.293500 2.598517
0.294000 2.599016
0.294500 2.599516
0.295000 2.600016
0.295500 2.600513
0.296000 2.601007
0.296500 2.601496
0.297000 2.601977
0.297500 2.602451
0.298000 2.602916
0.298500 2.603370
0.299000 2.603814
0.299500 2.604245
0.300000 2.604663
0.300500 2.605067
0.301000 2.605458
0.301500 2.605833
0.302000 2.606193
0.302500 2.606537
0.303000 2.606865
0.303500 2.607177
0.304000 2.607473
0.304500 2.607753
0.305000 2.608017
0.305500 2.608264
0.306000 2.608496
0.306500 2.608713
0.307000 2.608914
0.307500 2.609101
0.308000 2.609273
0.308500 2.609431
0.309000 2.609575
0.309500 2.609706
0.310000 2.609823
0.310500 2.609927
0.311000 2.610019
0.311500 2.610098
0.312000 2.610165
0.312500 2.610220
0.313000 2.610263
0.313500 2.610294
0.314000 2.610314
0.314500 2.610322
0.315000 2.610320
0.315500 2.610306
0.316000 2.610282
0.316500 2.610248
0.317000 2.610204
0.317500 2.610149
0.318000 2.610085
0.318500 2.610011
0.319000 2.609929
0.319500 2.609837
0.320000 2.609736
0.320500 2.609626
0.321000 2.609508
0.321500 2.609382
0.322000 2.609248
0.322500 2.609106
0.323000 2.608957
0.323500 2.608801
0.324000 2.608637
0.324500 2.608466
0.325000 2.608289
0.325500 2.608105
0.326000 2.607915
0.326500 2.607718
0.327000 2.607516
0.327500 2.607307
0.328000 2.607093
0.328500 2.606873
0.329000 2.606648
0.329500 2.606417
0.330000 2.606180
0.330500 2.605939
0.331000 2.605691
0.331500 2.605439
0.332000 2.605181
0.332500 2.604918
0.333000 2.604649
0.333500 2.604375
0.334000 2.604096
0.334500 2.603811
0.335000 2.603521
0.335500 2.603225
0.336000 2.602924
0.336500 2.602617
0.337000 2.602305
0.337500 2.601987
0.338000 2.601663
0.338500 2.601334
0.339000 2.600999
0.339500 2.600658
0.340000 2.600311
0.340500 2.599959
0.341000 2.599601
0.341500 2.599236
0.342000 2.598866
0.342500 2.598490
0.343000 2.598108
0.343500 2.597720
0.344000 2.597327
0.344500 2.596927
0.345000 2.596521
0.345500 2.596110
0.346000 2.595693
0.346500 2.595270
0.347000 2.594842
0.347500 2.594408
0.348000 2.593968
0.348500 2.593523
0.349000 2.593073
0.349500 2.592617
0.350000 2.592156
0.350500 2.591690
0.351000 2.591219
0.351500 2.590744
0.352000 2.590263
0.352500 2.589778
0.353000 2.589288
0.353500 2.588795
0.354000 2.588296
0.354500 2.587794
0.355000 2.587288
0.355500 2.586779
0.356000 2.586266
0.356500 2.585750
0.357000 2.585230
0.357500 2.584708
0.358000 2.584183
0.358500 2.583656
0.359000 2.583127
0.359500 2.582595
0.360000 2.582062
0.360500 2.581527
0.361000 2.580991
0.361500 2.580454
0.362000 2.579916
0.362500 2.579377
0.363000 2.578837
0.363500 2.578298
0.364000 2.577758
0.364500 2.577219
0.365000 2.576680
0.365500 2.576141
0.366000 2.575603
0.366500 2.575066
0.367000 2.574530
0.367500 2.573995
0.368000 2.573461
0.368500 2.572929
0.369000 2.572397
0.369500 2.571867
0.370000 2.571339
0.370500 2.570812
0.371000 2.570287
0.371500 2.569764
0.372000 2.569242
0.372500 2.568721
0.373000 2.568203
0.373500 2.567685
0.374000 2.567170
0.374500 2.566656
0.375000 2.566143
0.375500 2.565631
0.376000 2.565122
0.376500 2.564613
0.377000 2.564105
0.377500 2.563599
0.378000 2.563094
0.378500 2.562590
0.379000 2.562087
0.379500 2.561585
0.380000 2.561083
0.380500 2.560583
0.381000 2.560083
0.381500 2.559584
0.382000 2.559085
0.382500 2.558587
0.383000 2.558090
0.383500 2.557593
0.384000 2.557096
0.384500 2.556600
0.385000 2.556105
0.385500 2.555610
0.386000 2.555115
0.386500 2.554621
0.387000 2.554127
0.387500 2.553633
0.388000 2.553140
0.388500 2.552647
0.389000 2.552155
0.389500 2.551663
0.390000 2.551172
0.390500 2.550681
0.391000 2.550190
0.391500 2.549700
0.392000 2.549211
0.392500 2.548722
0.393000 2.548234
0.393500 2.547747
0.394000 2.547260
0.394500 2.546774
0.395000 2.546288
0.395500 2.545804
0.396000 2.545320
0.396500 2.544837
0.397000 2.544355
0.397500 2.543874
0.398000 2.543394
0.398500 2.542915
0.399000 2.542437
0.399500 2.541959
0.400000 2.541483
0.400500 2.541008
0.401000 2.540533
0.401500 2.540060
0.402000 2.539587
0.402500 2.539116
0.403000 2.538645
0.403500 2.538175
0.404000 2.537706
0.404500 2.537238
0.405000 2.536771
0.405500 2.536304
0.406000 2.535838
0.406500 2.535372
0.407000 2.534907
0.407500 2.534443
0.408000 2.533979
0.408500 2.533515
0.409000 2.533051
0.409500 2.532588
0.410000 2.532124
0.410500 2.531661
0.411000 2.531198
0.411500 2.530734
0.412000 2.530270
0.412500 2.529806
0.413000 2.529342
0.413500 2.528877
0.414000 2.528411
0.414500 2.527944
0.415000 2.527477
0.415500 2.527009
0.416000 2.526540
0.416500 2.526070
0.417000 2.525599
0.417500 2.525126
0.418000 2.524652
0.418500 2.524177
0.419000 2.523700
0.419500 2.523222
0.420000 2.522742
0.420500 2.522260
0.421000 2.521776
0.421500 2.521290
0.422000 2.520802
0.422500 2.520312
0.423000 2.519820
0.423500 2.519325
0.424000 2.518828
0.424500 2.518328
0.425000 2.517826
0.425500 2.517321
0.426000 2.516812
0.426500 2.516301
0.427000 2.515787
0.427500 2.515270
0.428000 2.514749
0.428500 2.514225
0.429000 2.513697
0.429500 2.513166
0.430000 2.512631
0.430500 2.512092
0.431000 2.511549
0.431500 2.511002
0.432000 2.510451
0.432500 2.509895
0.433000 2.509335
0.433500 2.508771
0.434000 2.508201
0.434500 2.507627
0.435000 2.507048
0.435500 2.506464
0.436000 2.505875
0.436500 2.505281
0.437000 2.504682
0.437500 2.504077
0.438000 2.503466
0.438500 2.502850
0.439000 2.502229
0.439500 2.501601
0.440000 2.500968
0.440500 2.500329
0.441000 2.499683
0.441500 2.499032
0.442000 2.498375
0.442500 2.497711
0.443000 2.497041
0.443500 2.496365
0.444000 2.495683
0.444500 2.494995
0.445000 2.494300
0.445500 2.493598
0.446000 2.492891
0.446500 2.492177
0.447000 2.491456
0.447500 2.490730
0.448000 2.489997
0.448500 2.489257
0.449000 2.488512
0.449500 2.487760
0.450000 2.487002
0.450500 2.486237
0.451000 2.485467
0.451500 2.484691
0.452000 2.483908
0.452500 2.483120
0.453000 2.482326
0.453500 2.481526
0.454000 2.480720
0.454500 2.479909
0.455000 2.479092
0.455500 2.478270
0.456000 2.477442
0.456500 2.476609
0.457000 2.475771
0.457500 2.474929
0.458000 2.474081
0.458500 2.473228
0.459000 2.472371
0.459500 2.471510
0.460000 2.470643
0.460500 2.469773
0.461000 2.468899
0.461500 2.468020
0.462000 2.467137
0.462500 2.466251
0.463000 2.465361
0.463500 2.464468
0.464000 2.463571
0.464500 2.462671
0.465000 2.461768
0.465500 2.460862
0.466000 2.459953
0.466500 2.459041
0.467000 2.458126
0.467500 2.457210
0.468000 2.456290
0.468500 2.455369
0.469000 2.454445
0.469500 2.453519
0.470000 2.452592
0.470500 2.451662
0.471000 2.450731
0.471500 2.449799
0.472000 2.448865
0.472500 2.447929
0.473000 2.446993
0.473500 2.446055
0.474000 2.445116
0.474500 2.444176
0.475000 2.443236
0.475500 2.442295
0.476000 2.441353
0.476500 2.440410
0.477000 2.439467
0.477500 2.438524
0.478000 2.437580
0.478500 2.436636
0.479000 2.435691
0.479500 2.434747
0.480000 2.433803
0.480500 2.432858
0.481000 2.431914
0.481500 2.430970
0.482000 2.430026
0.482500 2.429082
0.483000 2.428139
0.483500 2.427195
0.484000 2.426253
0.484500 2.425311
0.485000 2.424369
0.485500 2.423428
0.486000 2.422487
0.486500 2.421547
0.487000 2.420608
0.487500 2.419669
0.488000 2.418731
0.488500 2.417794
0.489000 2.416857
0.489500 2.415921
0.490000 2.414987
0.490500 2.414053
0.491000 2.413119
0.491500 2.412187
0.492000 2.411256
0.492500 2.410325
0.493000 2.409396
0.493500 2.408467
0.494000 2.407540
0.494500 2.406613
0.495000 2.405687
0.495500 2.404763
0.496000 2.403839
0.496500 2.402916
0.497000 2.401994
0.497500 2.401074
0.498000 2.400154
0.498500 2.399235
0.499000 2.398317
0.499500 2.397401
0.500000 2.396485
0.509900 2.381188
0.519800 2.366046
0.529700 2.350958
0.539600 2.335838
0.549500 2.320706
0.559400 2.305617
0.569300 2.290514
0.579200 2.275124
0.589100 2.259044
0.599000 2.242009
0.608900 2.224030
0.618800 2.205272
0.628700 2.185881
0.638600 2.165999
0.648500 2.145807
0.658400 2.125444
0.668300 2.104915
0.678200 2.084148
0.688100 2.063146
0.698000 2.042027
0.707900 2.020906
0.717800 1.999768
0.727700 1.978495
0.737600 1.957009
0.747500 1.935406
0.757400 1.913942
0.767300 1.892840
0.777200 1.872144
0.787100 1.851773
0.797000 1.831669
0.806900 1.811890
0.816800 1.792606
0.826700 1.774067
0.836600 1.756521
0.846500 1.740072
0.856400 1.724554
0.866300 1.709594
0.876200 1.694798
0.886100 1.679901
0.896000 1.664753
0.905900 1.649208
0.915800 1.633109
0.925700 1.616377
0.935600 1.598990
0.945500 1.580915
0.955400 1.562204
0.965300 1.543141
0.975200 1.524222
0.985100 1.505894
0.995000 1.488342
1.004900 1.471546
1.014800 1.455432
1.024700 1.439915
1.034600 1.424884
1.044500 1.410234
1.054400 1.395924
1.064300 1.381994
1.074200 1.368528
1.084100 1.355548
1.094000 1.342939
1.103900 1.330477
1.113800 1.317944
1.123700 1.305212
1.133600 1.292250
1.143500 1.279104
1.153400 1.265870
1.163300 1.252671
1.173200 1.239639
1.183100 1.226920
1.193000 1.214656
1.202900 1.202924
1.212800 1.191687
1.222700 1.180814
1.232600 1.170179
1.242500 1.159695
1.252400 1.149279
1.262300 1.138839
1.272200 1.128328
1.282100 1.117763
1.292000 1.107192
1.301900 1.096660
1.311800 1.086181
1.321700 1.075761
1.331600 1.065422
1.341500 1.055232
1.351400 1.045303
1.361300 1.035734
1.371200 1.026544
1.381100 1.017649
1.391000 1.008916
1.400900 1.000193
1.410800 0.991339
1.420700 0.982294
1.430600 0.973160
1.440500 0.964131
1.450400 0.955342
1.460300 0.946782
1.470200 0.938356
1.480100 0.929967
1.490000 0.921565
1.499900 0.913176
1.509800 0.904877
1.519700 0.896724
1.529600 0.888687
1.539500 0.880653
1.549400 0.872524
1.559300 0.864312
1.569200 0.856132
1.579100 0.848097
1.589000 0.840266
1.598900 0.832668
1.608800 0.825348
1.618700 0.818361
1.628600 0.811716
1.638500 0.805336
1.648400 0.799094
1.658300 0.792871
1.668200 0.786592
1.678100 0.780211
1.688000 0.773715
1.697900 0.767140
1.707800 0.760570
1.717700 0.754077
1.727600 0.747663
1.737500 0.741264
1.747400 0.734819
1.757300 0.728329
1.767200 0.721845
1.777100 0.715436
1.787000 0.709165
1.796900 0.703085
1.806800 0.697207
1.816700 0.691494
1.826600 0.685878
1.836500 0.680300
1.846400 0.674734
1.856300 0.669190
1.866200 0.663696
1.876100 0.658271
1.886000 0.652919
1.895900 0.647620
1.905800 0.642335
1.915700 0.637035
1.925600 0.631735
1.935500 0.626491
1.945400 0.621354
1.955300 0.616331
1.965200 0.611384
1.975100 0.606473
1.985000 0.601611
1.994900 0.596859
2.004800 0.592273
2.014700 0.587872
2.024600 0.583632
2.034500 0.579510
2.044400 0.575454
2.054300 0.571416
2.064200 0.567381
2.074100 0.563396
2.084000 0.559544
2.093900 0.555874
2.103800 0.552376
2.113700 0.549012
2.123600 0.545750
2.133500 0.542548
2.143400 0.539333
2.153300 0.536028
2.163200 0.532601
2.173100 0.529075
2.183000 0.525508
2.192900 0.521982
2.202800 0.518569
2.212700 0.515305
2.222600 0.512177
2.232500 0.509128
2.242400 0.506081
2.252300 0.502974
2.262200 0.499791
2.272100 0.496560
2.282000 0.493331
2.291900 0.490162
2.301800 0.487116
2.311700 0.484264
2.321600 0.481651
2.331500 0.479270
2.341400 0.477049
2.351300 0.474890
2.361200 0.472722
2.371100 0.470523
2.381000 0.468303
2.390900 0.466096
2.400800 0.463928
2.410700 0.461791
2.420600 0.459647
2.430500 0.457463
2.440400 0.455244
2.450300 0.453035
2.460200 0.450902
2.470100 0.448895
2.480000 0.447032
2.489900 0.445296
2.499800 0.443659
2.509700 0.442106
2.519600 0.440639
2.529500 0.439264
2.539400 0.437987
2.549300 0.436800
2.559200 0.435661
2.569100 0.434481
2.579000 0.433153
2.588900 0.431632
2.598800 0.429983
2.608700 0.428338
2.618600 0.426801
2.628500 0.425403
2.638400 0.424118
2.648300 0.422908
2.658200 0.421744
2.668100 0.420602
2.678000 0.419471
2.687900 0.418368
2.697800 0.417323
2.707700 0.416350
2.717600 0.415415
2.727500 0.414470
2.737400 0.413497
2.747300 0.412521
2.757200 0.411569
2.767100 0.410648
2.777000 0.409762
2.786900 0.408940
2.796800 0.408216
2.806700 0.407599
2.816600 0.407063
2.826500 0.406584
2.836400 0.406158
2.846300 0.405812
2.856200 0.405580
2.866100 0.405486
2.876000 0.405514
2.885900 0.405610
2.895800 0.405718
2.905700 0.405810
2.915600 0.405879
2.925500 0.405923
2.935400 0.405944
2.945300 0.405941
2.955200 0.405888
2.965100 0.405741
2.975000 0.405472
2.984900 0.405095
2.994800 0.404676
3.004700 0.404321
3.014600 0.404125
3.024500 0.404137
3.034400 0.404340
3.044300 0.404669
3.054200 0.405039
3.064100 0.405392
3.074000 0.405713
3.083900 0.406008
3.093800 0.406276
3.103700 0.406518
3.113600 0.406746
3.123500 0.406973
3.133400 0.407196
3.143300 0.407403
3.153200 0.407590
3.163100 0.407756
3.173000 0.407906
3.182900 0.408060
3.192800 0.408253
3.202700 0.408499
3.212600 0.408770
3.222500 0.409022
3.232400 0.409251
3.242300 0.409501
3.252200 0.409829
3.262100 0.410249
3.272000 0.410725
3.281900 0.411199
3.291800 0.411631
3.301700 0.412016
3.311600 0.412361
3.321500 0.412674
3.331400 0.412965
3.341300 0.413247
3.351200 0.413535
3.361100 0.413844
3.371000 0.414190
3.380900 0.414581
3.390800 0.414999
3.400700 0.415387
3.410600 0.415677
3.420500 0.415867
3.430400 0.416025
3.440300 0.416234
3.450200 0.416538
3.460100 0.416950
3.470000 0.417479
3.479900 0.418116
3.489800 0.418820
3.499700 0.419519
3.509600 0.420153
3.519500 0.420707
3.529400 0.421218
3.539300 0.421745
3.549200 0.422319
3.559100 0.422932
3.569000 0.423555
3.578900 0.424181
3.588800 0.424830
3.598700 0.425532
3.608600 0.426288
3.618500 0.427079
3.628400 0.427855
3.638300 0.428559
3.648200 0.429159
3.658100 0.429692
3.668000 0.430238
3.677900 0.430879
3.687800 0.431661
3.697700 0.432583
3.707600 0.433615
3.717500 0.434730
3.727400 0.435909
3.737300 0.437133
3.747200 0.438371
3.757100 0.439588
3.767000 0.440736
3.776900 0.441766
3.786800 0.442648
3.796700 0.443393
3.806600 0.444044
3.816500 0.444665
3.826400 0.445334
3.836300 0.446109
3.846200 0.447011
3.856100 0.448014
3.866000 0.449084
3.875900 0.450219
3.885800 0.451440
3.895700 0.452762
3.905600 0.454174
3.915500 0.455649
3.925400 0.457151
3.935300 0.458632
3.945200 0.460037
3.955100 0.461339
3.965000 0.462546
3.974900 0.463674
3.984800 0.464746
3.994700 0.465797
4.004600 0.466861
4.014500 0.467955
4.024400 0.469067
4.034300 0.470176
4.044200 0.471270
4.054100 0.472344
4.064000 0.473394
4.073900 0.474420
4.083800 0.475427
4.093700 0.476425
4.103600 0.477421
4.113500 0.478394
4.123400 0.479319
4.133300 0.480212
4.143200 0.481151
4.153100 0.482227
4.163000 0.483443
4.172900 0.484682
4.182800 0.485762
4.192700 0.486550
4.202600 0.487031
4.212500 0.487304
4.222400 0.487537
4.232300 0.487895
4.242200 0.488486
4.252100 0.489328
4.262000 0.490349
4.271900 0.491420
4.281800 0.492424
4.291700 0.493320
4.301600 0.494154
4.311500 0.495018
4.321400 0.495990
4.331300 0.497100
4.341200 0.498306
4.351100 0.499502
4.361000 0.500565
4.370900 0.501409
4.380800 0.502032
4.390700 0.502520
4.400600 0.503010
4.410500 0.503629
4.420400 0.504458
4.430300 0.505517
4.440200 0.506766
4.450100 0.508120
4.460000 0.509467
4.469900 0.510703
4.479800 0.511790
4.489700 0.512782
4.499600 0.513787
4.509500 0.514897
4.519400 0.516147
4.529300 0.517526
4.539200 0.518984
4.549100 0.520449
4.559000 0.521861
4.568900 0.523203
4.578800 0.524482
4.588700 0.525713
4.598600 0.526920
4.608500 0.528135
4.618400 0.529394
4.628300 0.530714
4.638200 0.532076
4.648100 0.533444
4.658000 0.534801
4.667900 0.536170
4.677800 0.537581
4.687700 0.539035
4.697600 0.540517
4.707500 0.542001
4.717400 0.543426
4.727300 0.544700
4.737200 0.545768
4.747100 0.546660
4.757000 0.547475
4.766900 0.548328
4.776800 0.549304
4.786700 0.550446
4.796600 0.551751
4.806500 0.553173
4.816400 0.554625
4.826300 0.556023
4.836200 0.557298
4.846100 0.558407
4.856000 0.559371
4.865900 0.560291
4.875800 0.561293
4.885700 0.562458
4.895600 0.563789
4.905500 0.565247
4.915400 0.566785
4.925300 0.568339
4.935200 0.569813
4.945100 0.571128
4.955000 0.572265
4.964900 0.573278
4.974800 0.574252
4.984700 0.575266
4.994600 0.576360
5.004500 0.577560
5.014400 0.578894
5.024300 0.580372
5.034200 0.581961
5.044100 0.583585
5.054000 0.585159
5.063900 0.586635
5.073800 0.587990
5.083700 0.589186
5.093600 0.590175
5.103500 0.590964
5.113400 0.591651
5.123300 0.592367
5.133200 0.593205
5.143100 0.594195
5.153000 0.595318
5.162900 0.596525
5.172800 0.597766
5.182700 0.599002
5.192600 0.600211
5.202500 0.601403
5.212400 0.602633
5.222300 0.603984
5.232200 0.605528
5.242100 0.607285
5.252000 0.609202
5.261900 0.611172
5.271800 0.613065
5.281700 0.614793
5.291600 0.616327
5.301500 0.617690
5.311400 0.618921
5.321300 0.620054
5.331200 0.621100
5.341100 0.622035
5.351000 0.622841
5.360900 0.623527
5.370800 0.624121
5.380700 0.624652
5.390600 0.625166
5.400500 0.625697
5.410400 0.626226
5.420300 0.626688
5.430200 0.627026
5.440100 0.627224
5.450000 0.627315
5.459900 0.627359
5.469800 0.627424
5.479700 0.627564
5.489600 0.627829
5.499500 0.628260
5.509400 0.628867
5.519300 0.629601
5.529200 0.630378
5.539100 0.631118
5.549000 0.631764
5.558900 0.632288
5.568800 0.632701
5.578700 0.633087
5.588600 0.633590
5.598500 0.634335
5.608400 0.635345
5.618300 0.636551
5.628200 0.637851
5.638100 0.639152
5.648000 0.640352
5.657900 0.641325
5.667800 0.641967
5.677700 0.642254
5.687600 0.642250
5.697500 0.642033
5.707400 0.641634
5.717300 0.641024
5.727200 0.640183
5.737100 0.639169
5.747000 0.638129
5.756900 0.637249
5.766800 0.636689
5.776700 0.636540
5.786600 0.636792
5.796500 0.637349
5.806400 0.638051
5.816300 0.638719
5.826200 0.639217
5.836100 0.639503
5.846000 0.639620
5.855900 0.639640
5.865800 0.639604
5.875700 0.639528
5.885600 0.639443
5.895500 0.639407
5.905400 0.639462
5.915300 0.639587
5.925200 0.639707
5.935100 0.639743
5.945000 0.639680
5.954900 0.639584
5.964800 0.639573
5.974700 0.639728
5.984600 0.640037
5.994500 0.640395
6.004400 0.640694
6.014300 0.640897
6.024200 0.641017
6.034100 0.641044
6.044000 0.640920
6.053900 0.640592
6.063800 0.640085
6.073700 0.639510
6.083600 0.638976
6.093500 0.638506
6.103400 0.638059
6.113300 0.637623
6.123200 0.637223
6.133100 0.636853
6.143000 0.636460
6.152900 0.635991
6.162800 0.635430
6.172700 0.634773
6.182600 0.634010
6.192500 0.633142
6.202400 0.632223
6.212300 0.631362
6.222200 0.630645
6.232100 0.630085
6.242000 0.629637
6.251900 0.629238
6.261800 0.628835
6.271700 0.628401
6.281600 0.627930
6.291500 0.627413
6.301400 0.626836
6.311300 0.626217
6.321200 0.625632
6.331100 0.625172
6.341000 0.624867
6.350900 0.624669
6.360800 0.624502
6.370700 0.624303
6.380600 0.624030
6.390500 0.623643
6.400400 0.623123
6.410300 0.622497
6.420200 0.621829
6.430100 0.621180
6.440000 0.620578
6.449900 0.620025
6.459800 0.619534
6.469700 0.619153
6.479600 0.618900
6.489500 0.618711
6.499400 0.618458
6.509300 0.618024
6.519200 0.617372
6.529100 0.616532
6.539000 0.615530
6.548900 0.614327
6.558800 0.612876
6.568700 0.611218
6.578600 0.609493
6.588500 0.607858
6.598400 0.606406
6.608300 0.605162
6.618200 0.604104
6.628100 0.603171
6.638000 0.602308
6.647900 0.601504
6.657800 0.600774
6.667700 0.600099
6.677600 0.599406
6.687500 0.598592
6.697400 0.597595
6.707300 0.596421
6.717200 0.595128
6.727100 0.593784
6.737000 0.592461
6.746900 0.591232
6.756800 0.590155
6.766700 0.589247
6.776600 0.588475
6.786500 0.587742
6.796400 0.586933
6.806300 0.586000
6.816200 0.585000
6.826100 0.584025
6.836000 0.583109
6.845900 0.582208
6.855800 0.581239
6.865700 0.580122
6.875600 0.578801
6.885500 0.577259
6.895400 0.575513
6.905300 0.573618
6.915200 0.571677
6.925100 0.569831
6.935000 0.568211
6.944900 0.566884
6.954800 0.565826
6.964700 0.564948
6.974600 0.564149
6.984500 0.563337
6.994400 0.562394
7.004300 0.561179
7.014200 0.559618
7.024100 0.557758
7.034000 0.555717
7.043900 0.553615
7.053800 0.551535
7.063700 0.549520
7.073600 0.547596
7.083500 0.545811
7.093400 0.544230
7.103300 0.542898
7.113200 0.541838
7.123100 0.541033
7.133000 0.540383
7.142900 0.539731
7.152800 0.538950
7.162700 0.537987
7.172600 0.536833
7.182500 0.535481
7.192400 0.533955
7.202300 0.532335
7.212200 0.530712
7.222100 0.529131
7.232000 0.527573
7.241900 0.525993
7.251800 0.524373
7.261700 0.522737
7.271600 0.521103
7.281500 0.519453
7.291400 0.517754
7.301300 0.515961
7.311200 0.514007
7.321100 0.511824
7.331000 0.509409
7.340900 0.506829
7.350800 0.504185
7.360700 0.501561
7.370600 0.499013
7.380500 0.496556
7.390400 0.494158
7.400300 0.491767
7.410200 0.489366
7.420100 0.486988
7.430000 0.484664
7.439900 0.482359
7.449800 0.479983
7.459700 0.477449
7.469600 0.474707
7.479500 0.471757
7.489400 0.468644
7.499300 0.465468
7.509200 0.462370
7.519100 0.459459
7.529000 0.456761
7.538900 0.454212
7.548800 0.451704
7.558700 0.449120
7.568600 0.446354
7.578500 0.443344
7.588400 0.440097
7.598300 0.436698
7.608200 0.433266
7.618100 0.429875
7.628000 0.426519
7.637900 0.423141
7.647800 0.419706
7.657700 0.416235
7.667600 0.412788
7.677500 0.409419
7.687400 0.406148
7.697300 0.402956
7.707200 0.399812
7.717100 0.396704
7.727000 0.393637
7.736900 0.390624
7.746800 0.387666
7.756700 0.384752
7.766600 0.381864
7.776500 0.378990
7.786400 0.376107
7.796300 0.373189
7.806200 0.370223
7.816100 0.367238
7.826000 0.364288
7.835900 0.361427
7.845800 0.358683
7.855700 0.356041
7.865600 0.353454
7.875500 0.350856
7.885400 0.348181
7.895300 0.345389
7.905200 0.342475
7.915100 0.339463
7.925000 0.336394
7.934900 0.333310
7.944800 0.330242
7.954700 0.327203
7.964600 0.324189
7.974500 0.321183
7.984400 0.318189
7.994300 0.315242
8.004200 0.312374
8.014100 0.309577
8.024000 0.306798
8.033900 0.303973
8.043800 0.301056
8.053700 0.298040
8.063600 0.294954
8.073500 0.291843
8.083400 0.288739
8.093300 0.285655
8.103200 0.282603
8.113100 0.279600
8.123000 0.276656
8.132900 0.273781
8.142800 0.270982
8.152700 0.268263
8.162600 0.265601
8.172500 0.262952
8.182400 0.260272
8.192300 0.257532
8.202200 0.254732
8.212100 0.251889
8.222000 0.249024
8.231900 0.246146
8.241800 0.243248
8.251700 0.240325
8.261600 0.237403
8.271500 0.234541
8.281400 0.231807
8.291300 0.229240
8.301200 0.226830
8.311100 0.224525
8.321000 0.222260
8.330900 0.219987
8.340800 0.217697
8.350700 0.215408
8.360600 0.213141
8.370500 0.210889
8.380400 0.208618
8.390300 0.206298
8.400200 0.203929
8.410100 0.201545
8.420000 0.199183
8.429900 0.196865
8.439800 0.194594
8.449700 0.192352
8.459600 0.190130
8.469500 0.187931
8.479400 0.185769
8.489300 0.183660
8.499200 0.181603
8.509100 0.179577
8.519000 0.177546
8.528900 0.175481
8.538800 0.173374
8.548700 0.171232
8.558600 0.169056
8.568500 0.166842
8.578400 0.164593
8.588300 0.162328
8.598200 0.160070
8.608100 0.157825
8.618000 0.155587
8.627900 0.153365
8.637800 0.151187
8.647700 0.149095
8.657600 0.147113
8.667500 0.145238
8.677400 0.143447
8.687300 0.141719
8.697200 0.140036
8.707100 0.138378
8.717000 0.136720
8.726900 0.135037
8.736800 0.133312
8.746700 0.131544
8.756600 0.129742
8.766500 0.127931
8.776400 0.126145
8.786300 0.124418
8.796200 0.122768
8.806100 0.121195
8.816000 0.119679
8.825900 0.118187
8.835800 0.116690
8.845700 0.115182
8.855600 0.113679
8.865500 0.112199
8.875400 0.110751
8.885300 0.109329
8.895200 0.107920
8.905100 0.106512
8.915000 0.105098
8.924900 0.103674
8.934800 0.102236
8.944700 0.100787
8.954600 0.099336
8.964500 0.097899
8.974400 0.096488
8.984300 0.095116
8.994200 0.093788
9.004100 0.092505
9.014000 0.091260
9.023900 0.090042
9.033800 0.088833
9.043700 0.087618
9.053600 0.086399
9.063500 0.085192
9.073400 0.084015
9.083300 0.082874
9.093200 0.081756
9.103100 0.080648
9.113000 0.079545
9.122900 0.078445
9.132800 0.077351
9.142700 0.076264
9.152600 0.075185
9.162500 0.074112
9.172400 0.073041
9.182300 0.071971
9.192200 0.070895
9.202100 0.069809
9.212000 0.068711
9.221900 0.067612
9.231800 0.066533
9.241700 0.065491
9.251600 0.064493
9.261500 0.063537
9.271400 0.062613
9.281300 0.061712
9.291200 0.060825
9.301100 0.059949
9.311000 0.059085
9.320900 0.058232
9.330800 0.057387
9.340700 0.056545
9.350600 0.055707
9.360500 0.054878
9.370400 0.054066
9.380300 0.053276
9.390200 0.052507
9.400100 0.051753
9.410000 0.051006
9.419900 0.050259
9.429800 0.049508
9.439700 0.048757
9.449600 0.048008
9.459500 0.047268
9.469400 0.046541
9.479300 0.045834
9.489200 0.045149
9.499100 0.044483
9.509000 0.043831
9.518900 0.043181
9.528800 0.042524
9.538700 0.041856
9.548600 0.041181
9.558500 0.040507
9.568400 0.039846
9.578300 0.039205
9.588200 0.038590
9.598100 0.037998
9.608000 0.037427
9.617900 0.036871
9.627800 0.036327
9.637700 0.035792
9.647600 0.035265
9.657500 0.034745
9.667400 0.034231
9.677300 0.033725
9.687200 0.033225
9.697100 0.032726
9.707000 0.032223
9.716900 0.031714
9.726800 0.031204
9.736700 0.030702
9.746600 0.030214
9.756500 0.029742
9.766400 0.029285
9.776300 0.028840
9.786200 0.028401
9.796100 0.027964
9.806000 0.027529
9.815900 0.027093
9.825800 0.026659
9.835700 0.026225
9.845600 0.025789
9.855500 0.025351
9.865400 0.024912
9.875300 0.024476
9.885200 0.024049
9.895100 0.023633
9.905000 0.023229
9.914900 0.022838
9.924800 0.022460
9.934700 0.022096
9.944600 0.021745
9.954500 0.021406
9.964400 0.021076
9.974300 0.020750
9.984200 0.020426
9.994100 0.020103
10.004000 0.019782
10.013900 0.019465
10.023800 0.019154
10.033700 0.018849
10.043600 0.018552
10.053500 0.018262
10.063400 0.017979
10.073300 0.017699
10.083200 0.017419
10.093100 0.017139
10.103000 0.016857
10.112900 0.016578
10.122800 0.016304
10.132700 0.016040
10.142600 0.015787
10.152500 0.015543
10.162400 0.015307
10.172300 0.015076
10.182200 0.014849
10.192100 0.014626
10.202000 0.014406
10.211900 0.014189
10.221800 0.013977
10.231700 0.013770
10.241600 0.013566
10.251500 0.013367
10.261400 0.013172
10.271300 0.012979
10.281200 0.012787
10.291100 0.012597
10.301000 0.012408
10.310900 0.012223
10.320800 0.012040
10.330700 0.011860
10.340600 0.011682
10.350500 0.011506
10.360400 0.011335
10.370300 0.011168
10.380200 0.011009
10.390100 0.010857
10.400000 0.010711
10.409900 0.010571
10.419800 0.010433
10.429700 0.010296
10.439600 0.010160
10.449500 0.010026
10.459400 0.009894
10.469300 0.009763
10.479200 0.009634
10.489100 0.009506
10.499000 0.009379
10.508900 0.009254
10.518800 0.009130
10.528700 0.009009
10.538600 0.008890
10.548500 0.008773
10.558400 0.008659
10.568300 0.008546
10.578200 0.008434
10.588100 0.008324
10.598000 0.008213
10.607900 0.008104
10.617800 0.007997
10.627700 0.007892
10.637600 0.007790
10.647500 0.007690
10.657400 0.007593
10.667300 0.007496
10.677200 0.007402
10.687100 0.007310
10.697000 0.007220
10.706900 0.007133
10.716800 0.007048
10.726700 0.006966
10.736600 0.006886
10.746500 0.006808
10.756400 0.006731
10.766300 0.006656
10.776200 0.006581
10.786100 0.006507
10.796000 0.006434
10.805900 0.006362
10.815800 0.006292
10.825700 0.006224
10.835600 0.006157
10.845500 0.006093
10.855400 0.006030
10.865300 0.005969
10.875200 0.005908
10.885100 0.005847
10.895000 0.005786
10.904900 0.005726
10.914800 0.005667
10.924700 0.005609
10.934600 0.005552
10.944500 0.005496
10.954400 0.005441
10.964300 0.005386
10.974200 0.005332
10.984100 0.005278
10.994000 0.005226
11.003900 0.005174
11.013800 0.005124
11.023700 0.005075
11.033600 0.005026
11.043500 0.004979
11.053400 0.004932
11.063300 0.004887
11.073200 0.004842
11.083100 0.004798
11.093000 0.004755
11.102900 0.004713
11.112800 0.004671
11.122700 0.004631
11.132600 0.004592
11.142500 0.004554
11.152400 0.004516
11.162300 0.004479
11.172200 0.004443
11.182100 0.004406
11.192000 0.004370
11.201900 0.004334
11.211800 0.004298
11.221700 0.004263
11.231600 0.004228
11.241500 0.004194
11.251400 0.004161
11.261300 0.004128
11.271200 0.004096
11.281100 0.004065
11.291000 0.004035
11.300900 0.004005
11.310800 0.003975
11.320700 0.003946
11.330600 0.003916
11.340500 0.003887
11.350400 0.003858
11.360300 0.003829
11.370200 0.003800
11.380100 0.003771
11.390000 0.003743
11.399900 0.003716
11.409800 0.003688
11.419700 0.003662
11.429600 0.003636
11.439500 0.003610
11.449400 0.003586
11.459300 0.003562
11.469200 0.003539
11.479100 0.003516
11.489000 0.003493
11.498900 0.003471
11.508800 0.003449
11.518700 0.003428
11.528600 0.003406
11.538500 0.003385
11.548400 0.003364
11.558300 0.003343
11.568200 0.003323
11.578100 0.003303
11.588000 0.003283
11.597900 0.003263
11.607800 0.003244
11.617700 0.003225
11.627600 0.003206
11.637500 0.003187
11.647400 0.003169
11.657300 0.003150
11.667200 0.003132
11.677100 0.003115
11.687000 0.003097
11.696900 0.003080
11.706800 0.003064
11.716700 0.003047
11.726600 0.003031
11.736500 0.003015
11.746400 0.002999
11.756300 0.002984
11.766200 0.002969
11.776100 0.002954
11.786000 0.002939
11.795900 0.002924
11.805800 0.002909
11.815700 0.002895
11.825600 0.002880
11.835500 0.002866
11.845400 0.002852
11.855300 0.002838
11.865200 0.002823
11.875100 0.002809
11.885000 0.002795
11.894900 0.002782
11.904800 0.002768
11.914700 0.002755
11.924600 0.002742
11.934500 0.002729
11.944400 0.002717
11.954300 0.002704
11.964200 0.002692
11.974100 0.002680
11.984000 0.002667
11.993900 0.002655
12.003800 0.002644
12.013700 0.002632
12.023600 0.002621
12.033500 0.002609
12.043400 0.002598
12.053300 0.002587
12.063200 0.002577
12.073100 0.002566
12.083000 0.002555
12.092900 0.002545
12.102800 0.002535
12.112700 0.002524
12.122600 0.002514
12.132500 0.002504
12.142400 0.002494
12.152300 0.002485
12.162200 0.002475
12.172100 0.002466
12.182000 0.002456
12.191900 0.002447
12.201800 0.002437
12.211700 0.002428
12.221600 0.002419
12.231500 0.002410
12.241400 0.002400
12.251300 0.002391
12.261200 0.002382
12.271100 0.002373
12.281000 0.002365
12.290900 0.002356
12.300800 0.002347
12.310700 0.002339
12.320600 0.002331
12.330500 0.002322
12.340400 0.002314
12.350300 0.002306
12.360200 0.002298
12.370100 0.002290
12.380000 0.002282
12.389900 0.002274
12.399800 0.002266
12.409700 0.002258
12.419600 0.002250
12.429500 0.002243
12.439400 0.002235
12.449300 0.002228
12.459200 0.002220
12.469100 0.002213
12.479000 0.002205
12.488900 0.002198
12.498800 0.002191
12.508700 0.002184
12.518600 0.002176
12.528500 0.002169
12.538400 0.002162
12.548300 0.002155
12.558200 0.002149
12.568100 0.002142
12.578000 0.002135
12.587900 0.002129
12.597800 0.002122
12.607700 0.002115
12.617600 0.002109
12.627500 0.002102
12.637400 0.002096
12.647300 0.002089
12.657200 0.002083
12.667100 0.002077
12.677000 0.002070
12.686900 0.002064
12.696800 0.002058
12.706700 0.002052
12.716600 0.002045
12.726500 0.002039
12.736400 0.002033
12.746300 0.002027
12.756200 0.002021
12.766100 0.002015
12.776000 0.002009
12.785900 0.002003
12.795800 0.001998
12.805700 0.001992
12.815600 0.001986
12.825500 0.001981
12.835400 0.001975
12.845300 0.001969
12.855200 0.001964
12.865100 0.001958
12.875000 0.001953
12.884900 0.001947
12.894800 0.001942
12.904700 0.001936
12.914600 0.001931
12.924500 0.001926
12.934400 0.001920
12.944300 0.001915
12.954200 0.001910
12.964100 0.001905
12.974000 0.001900
12.983900 0.001894
12.993800 0.001889
13.003700 0.001884
13.013600 0.001879
13.023500 0.001874
13.033400 0.001869
13.043300 0.001864
13.053200 0.001859
13.063100 0.001854
13.073000 0.001850
13.082900 0.001845
13.092800 0.001840
13.102700 0.001835
13.112600 0.001830
13.122500 0.001826
13.132400 0.001821
13.142300 0.001816
13.152200 0.001811
13.162100 0.001807
13.172000 0.001802
13.181900 0.001798
13.191800 0.001793
13.201700 0.001789
13.211600 0.001784
13.221500 0.001780
13.231400 0.001775
13.241300 0.001771
13.251200 0.001766
13.261100 0.001762
13.271000 0.001757
13.280900 0.001753
13.290800 0.001749
13.300700 0.001744
13.310600 0.001740
13.320500 0.001736
13.330400 0.001732
13.340300 0.001727
13.350200 0.001723
13.360100 0.001719
13.370000 0.001715
13.379900 0.001711
13.389800 0.001707
13.399700 0.001702
13.409600 0.001698
13.419500 0.001694
13.429400 0.001690
13.439300 0.001686
13.449200 0.001682
13.459100 0.001678
13.469000 0.001674
13.478900 0.001670
13.488800 0.001666
13.498700 0.001662
13.508600 0.001659
13.518500 0.001655
13.528400 0.001651
13.538300 0.001647
13.548200 0.001643
13.558100 0.001639
13.568000 0.001636
13.577900 0.001632
13.587800 0.001628
13.597700 0.001624
13.607600 0.001621
13.617500 0.001617
13.627400 0.001613
13.637300 0.001610
13.647200 0.001606
13.657100 0.001602
13.667000 0.001599
13.676900 0.001595
13.686800 0.001592
13.696700 0.001588
13.706600 0.001584
13.716500 0.001581
13.726400 0.001577
13.736300 0.001574
13.746200 0.001570
13.756100 0.001567
13.766000 0.001563
13.775900 0.001560
13.785800 0.001556
13.795700 0.001553
13.805600 0.001550
13.815500 0.001546
13.825400 0.001543
13.835300 0.001539
13.845200 0.001536
13.855100 0.001533
13.865000 0.001529
13.874900 0.001526
13.884800 0.001523
13.894700 0.001520
13.904600 0.001516
13.914500 0.001513
13.924400 0.001510
13.934300 0.001507
13.944200 0.001503
13.954100 0.001500
13.964000 0.001497
13.973900 0.001494
13.983800 0.001491
13.993700 0.001487
14.003600 0.001484
14.013500 0.001481
14.023400 0.001478
14.033300 0.001475
14.043200 0.001472
14.053100 0.001469
14.063000 0.001466
14.072900 0.001463
14.082800 0.001460
14.092700 0.001456
14.102600 0.001453
14.112500 0.001450
14.122400 0.001447
14.132300 0.001444
14.142200 0.001441
14.152100 0.001438
14.162000 0.001436
14.171900 0.001433
14.181800 0.001430
14.191700 0.001427
14.201600 0.001424
14.211500 0.001421
14.221400 0.001418
14.231300 0.001415
14.241200 0.001412
14.251100 0.001409
14.261000 0.001406
14.270900 0.001404
14.280800 0.001401
14.290700 0.001398
14.300600 0.001395
14.310500 0.001392
14.320400 0.001390
14.330300 0.001387
14.340200 0.001384
14.350100 0.001381
14.360000 0.001378
14.369900 0.001376
14.379800 0.001373
14.389700 0.001370
14.399600 0.001368
14.409500 0.001365
14.419400 0.001362
14.429300 0.001360
14.439200 0.001357
14.449100 0.001354
14.459000 0.001352
14.468900 0.001349
14.478800 0.001346
14.488700 0.001344
14.498600 0.001341
14.508500 0.001338
14.518400 0.001336
14.528300 0.001333
14.538200 0.001331
14.548100 0.001328
14.558000 0.001325
14.567900 0.001323
14.577800 0.001320
14.587700 0.001318
14.597600 0.001315
14.607500 0.001313
14.617400 0.001310
14.627300 0.001308
14.637200 0.001305
14.647100 0.001303
14.657000 0.001300
14.666900 0.001298
14.676800 0.001295
14.686700 0.001293
14.696600 0.001290
14.706500 0.001288
14.716400 0.001285
14.726300 0.001283
14.736200 0.001281
14.746100 0.001278
14.756000 0.001276
14.765900 0.001273
14.775800 0.001271
14.785700 0.001269
14.795600 0.001266
14.805500 0.001264
14.815400 0.001262
14.825300 0.001259
14.835200 0.001257
14.845100 0.001255
14.855000 0.001252
14.864900 0.001250
14.874800 0.001248
14.884700 0.001245
14.894600 0.001243
14.904500 0.001241
14.914400 0.001238
14.924300 0.001236
14.934200 0.001234
14.944100 0.001232
14.954000 0.001229
14.963900 0.001227
14.973800 0.001225
14.983700 0.001223
14.993600 0.001220
15.003500 0.001218
15.013400 0.001216
15.023300 0.001214
15.033200 0.001212
15.043100 0.001209
15.053000 0.001207
15.062900 0.001205
15.072800 0.001203
15.082700 0.001201
15.092600 0.001198
15.102500 0.001196
15.112400 0.001194
15.122300 0.001192
15.132200 0.001190
15.142100 0.001188
15.152000 0.001186
15.161900 0.001184
15.171800 0.001181
15.181700 0.001179
15.191600 0.001177
15.201500 0.001175
15.211400 0.001173
15.221300 0.001171
15.231200 0.001169
15.241100 0.001167
15.251000 0.001165
15.260900 0.001163
15.270800 0.001161
15.280700 0.001159
15.290600 0.001157
15.300500 0.001155
15.310400 0.001153
15.320300 0.001151
15.330200 0.001149
15.340100 0.001147
15.350000 0.001145
15.359900 0.001143
15.369800 0.001141
15.379700 0.001139
15.389600 0.001137
15.399500 0.001135
15.409400 0.001133
15.419300 0.001131
15.429200 0.001129
15.439100 0.001127
15.449000 0.001125
15.458900 0.001123
15.468800 0.001121
15.478700 0.001119
15.488600 0.001117
15.498500 0.001115
15.508400 0.001113
15.518300 0.001112
15.528200 0.001110
15.538100 0.001108
15.548000 0.001106
15.557900 0.001104
15.567800 0.001102
15.577700 0.001100
15.587600 0.001098
15.597500 0.001097
15.607400 0.001095
15.617300 0.001093
15.627200 0.001091
15.637100 0.001089
15.647000 0.001087
15.656900 0.001086
15.666800 0.001084
15.676700 0.001082
15.686600 0.001080
15.696500 0.001078
15.706400 0.001077
15.716300 0.001075
15.726200 0.001073
15.736100 0.001071
15.746000 0.001069
15.755900 0.001068
15.765800 0.001066
15.775700 0.001064
15.785600 0.001062
15.795500 0.001061
15.805400 0.001059
15.815300 0.001057
15.825200 0.001055
15.835100 0.001054
15.845000 0.001052
15.854900 0.001050
15.864800 0.001048
15.874700 0.001047
15.884600 0.001045
15.894500 0.001043
15.904400 0.001042
15.914300 0.001040
15.924200 0.001038
15.934100 0.001036
15.944000 0.001035
15.953900 0.001033
15.963800 0.001031
15.973700 0.001030
15.983600 0.001028
15.993500 0.001026
16.003400 0.001025
16.013300 0.001023
16.023200 0.001021
16.033100 0.001020
16.043000 0.001018
16.052900 0.001017
16.062800 0.001015
16.072700 0.001013
16.082600 0.001012
16.092500 0.001010
16.102400 0.001008
16.112300 0.001007
16.122200 0.001005
16.132100 0.001004
16.142000 0.001002
16.151900 0.001000
16.161800 0.000999
16.171700 0.000997
16.181600 0.000996
16.191500 0.000994
16.201400 0.000993
16.211300 0.000991
16.221200 0.000989
16.231100 0.000988
16.241000 0.000986
16.250900 0.000985
16.260800 0.000983
16.270700 0.000982
16.280600 0.000980
16.290500 0.000979
16.300400 0.000977
16.310300 0.000976
16.320200 0.000974
16.330100 0.000972
16.340000 0.000971
16.349900 0.000969
16.359800 0.000968
16.369700 0.000966
16.379600 0.000965
16.389500 0.000963
16.399400 0.000962
16.409300 0.000960
16.419200 0.000959
16.429100 0.000958
16.439000 0.000956
16.448900 0.000955
16.458800 0.000953
16.468700 0.000952
16.478600 0.000950
16.488500 0.000949
16.498400 0.000947
16.508300 0.000946
16.518200 0.000944
16.528100 0.000943
16.538000 0.000941
16.547900 0.000940
16.557800 0.000939
16.567700 0.000937
16.577600 0.000936
16.587500 0.000934
16.597400 0.000933
16.607300 0.000932
16.617200 0.000930
16.627100 0.000929
16.637000 0.000927
16.646900 0.000926
16.656800 0.000924
16.666700 0.000923
16.676600 0.000922
16.686500 0.000920
16.696400 0.000919
16.706300 0.000918
16.716200 0.000916
16.726100 0.000915
16.736000 0.000913
16.745900 0.000912
16.755800 0.000911
16.765700 0.000909
16.775600 0.000908
16.785500 0.000907
16.795400 0.000905
16.805300 0.000904
16.815200 0.000903
16.825100 0.000901
16.835000 0.000900
16.844900 0.000899
16.854800 0.000897
16.864700 0.000896
16.874600 0.000895
16.884500 0.000893
16.894400 0.000892
16.904300 0.000891
16.914200 0.000889
16.924100 0.000888
16.934000 0.000887
16.943900 0.000885
16.953800 0.000884
16.963700 0.000883
16.973600 0.000882
16.983500 0.000880
16.993400 0.000879
17.003300 0.000878
17.013200 0.000876
17.023100 0.000875
17.033000 0.000874
17.042900 0.000873
17.052800 0.000871
17.062700 0.000870
17.072600 0.000869
17.082500 0.000868
17.092400 0.000866
17.102300 0.000865
17.112200 0.000864
17.122100 0.000863
17.132000 0.000861
17.141900 0.000860
17.151800 0.000859
17.161700 0.000858
17.171600 0.000856
17.181500 0.000855
17.191400 0.000854
17.201300 0.000853
17.211200 0.000851
17.221100 0.000850
17.231000 0.000849
17.240900 0.000848
17.250800 0.000847
17.260700 0.000845
17.270600 0.000844
17.280500 0.000843
17.290400 0.000842
17.300300 0.000841
17.310200 0.000839
17.320100 0.000838
17.330000 0.000837
17.339900 0.000836
17.349800 0.000835
17.359700 0.000833
17.369600 0.000832
17.379500 0.000831
17.389400 0.000830
17.399300 0.000829
17.409200 0.000828
17.419100 0.000826
17.429000 0.000825
17.438900 0.000824
17.448800 0.000823
17.458700 0.000822
17.468600 0.000821
17.478500 0.000819
17.488400 0.000818
17.498300 0.000817
17.508200 0.000816
17.518100 0.000815
17.528000 0.000814
17.537900 0.000813
17.547800 0.000812
17.557700 0.000810
17.567600 0.000809
17.577500 0.000808
17.587400 0.000807
17.597300 0.000806
17.607200 0.000805
17.617100 0.000804
17.627000 0.000803
17.636900 0.000801
17.646800 0.000800
17.656700 0.000799
17.666600 0.000798
17.676500 0.000797
17.686400 0.000796
17.696300 0.000795
17.706200 0.000794
17.716100 0.000793
17.726000 0.000792
17.735900 0.000791
17.745800 0.000789
17.755700 0.000788
17.765600 0.000787
17.775500 0.000786
17.785400 0.000785
17.795300 0.000784
17.805200 0.000783
17.815100 0.000782
17.825000 0.000781
17.834900 0.000780
17.844800 0.000779
17.854700 0.000778
17.864600 0.000777
17.874500 0.000776
17.884400 0.000775
17.894300 0.000774
17.904200 0.000773
17.914100 0.000771
17.924000 0.000770
17.933900 0.000769
17.943800 0.000768
17.953700 0.000767
17.963600 0.000766
17.973500 0.000765
17.983400 0.000764
17.993300 0.000763
18.003200 0.000762
18.013100 0.000761
18.023000 0.000760
18.032900 0.000759
18.042800 0.000758
18.052700 0.000757
18.062600 0.000756
18.072500 0.000755
18.082400 0.000754
18.092300 0.000753
18.102200 0.000752
18.112100 0.000751
18.122000 0.000750
18.131900 0.000749
18.141800 0.000748
18.151700 0.000747
18.161600 0.000746
18.171500 0.000745
18.181400 0.000744
18.191300 0.000743
18.201200 0.000742
18.211100 0.000741
18.221000 0.000740
18.230900 0.000739
18.240800 0.000738
18.250700 0.000737
18.260600 0.000736
18.270500 0.000735
18.280400 0.000735
18.290300 0.000734
18.300200 0.000733
18.310100 0.000732
18.320000 0.000731
18.329900 0.000730
18.339800 0.000729
18.349700 0.000728
18.359600 0.000727
18.369500 0.000726
18.379400 0.000725
18.389300 0.000724
18.399200 0.000723
18.409100 0.000722
18.419000 0.000721
18.428900 0.000720
18.438800 0.000719
18.448700 0.000718
18.458600 0.000718
18.468500 0.000717
18.478400 0.000716
18.488300 0.000715
18.498200 0.000714
18.508100 0.000713
18.518000 0.000712
18.527900 0.000711
18.537800 0.000710
18.547700 0.000709
18.557600 0.000708
18.567500 0.000707
18.577400 0.000707
18.587300 0.000706
18.597200 0.000705
18.607100 0.000704
18.617000 0.000703
18.626900 0.000702
18.636800 0.000701
18.646700 0.000700
18.656600 0.000699
18.666500 0.000699
18.676400 0.000698
18.686300 0.000697
18.696200 0.000696
18.706100 0.000695
18.716000 0.000694
18.725900 0.000693
18.735800 0.000692
18.745700 0.000692
18.755600 0.000691
18.765500 0.000690
18.775400 0.000689
18.785300 0.000688
18.795200 0.000687
18.805100 0.000686
18.815000 0.000685
18.824900 0.000685
18.834800 0.000684
18.844700 0.000683
18.854600 0.000682
18.864500 0.000681
18.874400 0.000680
18.884300 0.000679
18.894200 0.000679
18.904100 0.000678
18.914000 0.000677
18.923900 0.000676
18.933800 0.000675
18.943700 0.000674
18.953600 0.000674
18.963500 0.000673
18.973400 0.000672
18.983300 0.000671
18.993200 0.000670
19.003100 0.000669
19.013000 0.000669
19.022900 0.000668
19.032800 0.000667
19.042700 0.000666
19.052600 0.000665
19.062500 0.000664
19.072400 0.000664
19.082300 0.000663
19.092200 0.000662
19.102100 0.000661
19.112000 0.000660
19.121900 0.000660
19.131800 0.000659
19.141700 0.000658
19.151600 0.000657
19.161500 0.000656
19.171400 0.000656
19.181300 0.000655
19.191200 0.000654
19.201100 0.000653
19.211000 0.000652
19.220900 0.000652
19.230800 0.000651
19.240700 0.000650
19.250600 0.000649
19.260500 0.000648
19.270400 0.000648
19.280300 0.000647
19.290200 0.000646
19.300100 0.000645
19.310000 0.000645
19.319900 0.000644
19.329800 0.000643
19.339700 0.000642
19.349600 0.000641
19.359500 0.000641
19.369400 0.000640
19.379300 0.000639
19.389200 0.000638
19.399100 0.000638
19.409000 0.000637
19.418900 0.000636
19.428800 0.000635
19.438700 0.000635
19.448600 0.000634
19.458500 0.000633
19.468400 0.000632
19.478300 0.000632
19.488200 0.000631
19.498100 0.000630
19.508000 0.000629
19.517900 0.000628
19.527800 0.000628
19.537700 0.000627
19.547600 0.000626
19.557500 0.000626
19.567400 0.000625
19.577300 0.000624
19.587200 0.000623
19.597100 0.000623
19.607000 0.000622
19.616900 0.000621
19.626800 0.000620
19.636700 0.000620
19.646600 0.000619
19.656500 0.000618
19.666400 0.000617
19.676300 0.000617
19.686200 0.000616
19.696100 0.000615
19.706000 0.000615
19.715900 0.000614
19.725800 0.000613
19.735700 0.000612
19.745600 0.000612
19.755500 0.000611
19.765400 0.000610
19.775300 0.000610
19.785200 0.000609
19.795100 0.000608
19.805000 0.000607
19.814900 0.000607
19.824800 0.000606
19.834700 0.000605
19.844600 0.000605
19.854500 0.000604
19.864400 0.000603
19.874300 0.000602
19.884200 0.000602
19.894100 0.000601
19.904000 0.000600
19.913900 0.000600
19.923800 0.000599
19.933700 0.000598
19.943600 0.000598
19.953500 0.000597
19.963400 0.000596
19.973300 0.000596
19.983200 0.000595
19.993100 0.000594
20.003000 0.000593
20.012900 0.000593
20.022800 0.000592
20.032700 0.000591
20.042600 0.000591
20.052500 0.000590
20.062400 0.000589
20.072300 0.000589
20.082200 0.000588
20.092100 0.000587
20.102000 0.000587
20.111900 0.000586
20.121800 0.000585
20.131700 0.000585
20.141600 0.000584
20.151500 0.000583
20.161400 0.000583
20.171300 0.000582
20.181200 0.000581
20.191100 0.000581
20.201000 0.000580
20.210900 0.000579
20.220800 0.000579
20.230700 0.000578
20.240600 0.000577
20.250500 0.000577
20.260400 0.000576
20.270300 0.000575
20.280200 0.000575
20.290100 0.000574
20.300000 0.000574
20.309900 0.000573
20.319800 0.000572
20.329700 0.000572
20.339600 0.000571
20.349500 0.000570
20.359400 0.000570
20.369300 0.000569
20.379200 0.000568
20.389100 0.000568
20.399000 0.000567
20.408900 0.000566
20.418800 0.000566
20.428700 0.000565
20.438600 0.000565
20.448500 0.000564
20.458400 0.000563
20.468300 0.000563
20.478200 0.000562
20.488100 0.000561
20.498000 0.000561
20.507900 0.000560
20.517800 0.000560
20.527700 0.000559
20.537600 0.000558
20.547500 0.000558
20.557400 0.000557
20.567300 0.000556
20.577200 0.000556
20.587100 0.000555
20.597000 0.000555
20.606900 0.000554
20.616800 0.000553
20.626700 0.000553
20.636600 0.000552
20.646500 0.000552
20.656400 0.000551
20.666300 0.000550
20.676200 0.000550
20.686100 0.000549
20.696000 0.000549
20.705900 0.000548
20.715800 0.000547
20.725700 0.000547
20.735600 0.000546
20.745500 0.000546
20.755400 0.000545
20.765300 0.000544
20.775200 0.000544
20.785100 0.000543
20.795000 0.000543
20.804900 0.000542
20.814800 0.000541
20.824700 0.000541
20.834600 0.000540
20.844500 0.000540
20.854400 0.000539
20.864300 0.000538
20.874200 0.000538
20.884100 0.000537
20.894000 0.000537
20.903900 0.000536
20.913800 0.000536
20.923700 0.000535
20.933600 0.000534
20.943500 0.000534
20.953400 0.000533
20.963300 0.000533
20.973200 0.000532
20.983100 0.000531
20.993000 0.000531
21.002900 0.000530
21.012800 0.000530
21.022700 0.000529
21.032600 0.000529
21.042500 0.000528
21.052400 0.000527
21.062300 0.000527
21.072200 0.000526
21.082100 0.000526
21.092000 0.000525
21.101900 0.000525
21.111800 0.000524
21.121700 0.000524
21.131600 0.000523
21.141500 0.000522
21.151400 0.000522
21.161300 0.000521
21.171200 0.000521
21.181100 0.000520
21.191000 0.000520
21.200900 0.000519
21.210800 0.000519
21.220700 0.000518
21.230600 0.000517
21.240500 0.000517
21.250400 0.000516
21.260300 0.000516
21.270200 0.000515
21.280100 0.000515
21.290000 0.000514
21.299900 0.000514
21.309800 0.000513
21.319700 0.000513
21.329600 0.000512
21.339500 0.000511
21.349400 0.000511
21.359300 0.000510
21.369200 0.000510
21.379100 0.000509
21.389000 0.000509
21.398900 0.000508
21.408800 0.000508
21.418700 0.000507
21.428600 0.000507
21.438500 0.000506
21.448400 0.000506
21.458300 0.000505
21.468200 0.000504
21.478100 0.000504
21.488000 0.000503
21.497900 0.000503
21.507800 0.000502
21.517700 0.000502
21.527600 0.000501
21.537500 0.000501
21.547400 0.000500
21.557300 0.000500
21.567200 0.000499
21.577100 0.000499
21.587000 0.000498
21.596900 0.000498
21.606800 0.000497
21.616700 0.000497
21.626600 0.000496
21.636500 0.000496
21.646400 0.000495
21.656300 0.000495
21.666200 0.000494
21.676100 0.000494
21.686000 0.000493
21.695900 0.000493
21.705800 0.000492
21.715700 0.000492
21.725600 0.000491
21.735500 0.000491
21.745400 0.000490
21.755300 0.000490
21.765200 0.000489
21.775100 0.000488
21.785000 0.000488
21.794900 0.000487
21.804800 0.000487
21.814700 0.000486
21.824600 0.000486
21.834500 0.000485
21.844400 0.000485
21.854300 0.000485
21.864200 0.000484
21.874100 0.000484
21.884000 0.000483
21.893900 0.000483
21.903800 0.000482
21.913700 0.000482
21.923600 0.000481
21.933500 0.000481
21.943400 0.000480
21.953300 0.000480
21.963200 0.000479
21.973100 0.000479
21.983000 0.000478
21.992900 0.000478
22.002800 0.000477
22.012700 0.000477
22.022600 0.000476
22.032500 0.000476
22.042400 0.000475
22.052300 0.000475
22.062200 0.000474
22.072100 0.000474
22.082000 0.000473
22.091900 0.000473
22.101800 0.000472
22.111700 0.000472
22.121600 0.000471
22.131500 0.000471
22.141400 0.000470
22.151300 0.000470
22.161200 0.000469
22.171100 0.000469
22.181000 0.000469
22.190900 0.000468
22.200800 0.000468
22.210700 0.000467
22.220600 0.000467
22.230500 0.000466
22.240400 0.000466
22.250300 0.000465
22.260200 0.000465
22.270100 0.000464
22.280000 0.000464
22.289900 0.000463
22.299800 0.000463
22.309700 0.000462
22.319600 0.000462
22.329500 0.000462
22.339400 0.000461
22.349300 0.000461
22.359200 0.000460
22.369100 0.000460
22.379000 0.000459
22.388900 0.000459
22.398800 0.000458
22.408700 0.000458
22.418600 0.000457
22.428500 0.000457
22.438400 0.000457
22.448300 0.000456
22.458200 0.000456
22.468100 0.000455
22.478000 0.000455
22.487900 0.000454
22.497800 0.000454
22.507700 0.000453
22.517600 0.000453
22.527500 0.000453
22.537400 0.000452
22.547300 0.000452
22.557200 0.000451
22.567100 0.000451
22.577000 0.000450
22.586900 0.000450
22.596800 0.000449
22.606700 0.000449
22.616600 0.000449
22.626500 0.000448
22.636400 0.000448
22.646300 0.000447
22.656200 0.000447
22.666100 0.000446
22.676000 0.000446
22.685900 0.000445
22.695800 0.000445
22.705700 0.000445
22.715600 0.000444
22.725500 0.000444
22.735400 0.000443
22.745300 0.000443
22.755200 0.000442
22.765100 0.000442
22.775000 0.000442
22.784900 0.000441
22.794800 0.000441
22.804700 0.000440
22.814600 0.000440
22.824500 0.000439
22.834400 0.000439
22.844300 0.000439
22.854200 0.000438
22.864100 0.000438
22.874000 0.000437
22.883900 0.000437
22.893800 0.000436
22.903700 0.000436
22.913600 0.000436
22.923500 0.000435
22.933400 0.000435
22.943300 0.000434
22.953200 0.000434
22.963100 0.000434
22.973000 0.000433
22.982900 0.000433
22.992800 0.000432
23.002700 0.000432
23.012600 0.000431
23.022500 0.000431
23.032400 0.000431
23.042300 0.000430
23.052200 0.000430
23.062100 0.000429
23.072000 0.000429
23.081900 0.000429
23.091800 0.000428
23.101700 0.000428
23.111600 0.000427
23.121500 0.000427
23.131400 0.000427
23.141300 0.000426
23.151200 0.000426
23.161100 0.000425
23.171000 0.000425
23.180900 0.000425
23.190800 0.000424
23.200700 0.000424
23.210600 0.000423
23.220500 0.000423
23.230400 0.000423
23.240300 0.000422
23.250200 0.000422
23.260100 0.000421
23.270000 0.000421
23.279900 0.000421
23.289800 0.000420
23.299700 0.000420
23.309600 0.000419
23.319500 0.000419
23.329400 0.000419
23.339300 0.000418
23.349200 0.000418
23.359100 0.000417
23.369000 0.000417
23.378900 0.000417
23.388800 0.000416
23.398700 0.000416
23.408600 0.000415
23.418500 0.000415
23.428400 0.000415
23.438300 0.000414
23.448200 0.000414
23.458100 0.000413
23.468000 0.000413
23.477900 0.000413
23.487800 0.000412
23.497700 0.000412
23.507600 0.000412
23.517500 0.000411
23.527400 0.000411
23.537300 0.000410
23.547200 0.000410
23.557100 0.000410
23.567000 0.000409
23.576900 0.000409
23.586800 0.000408
23.596700 0.000408
23.606600 0.000408
23.616500 0.000407
23.626400 0.000407
23.636300 0.000407
23.646200 0.000406
23.656100 0.000406
23.666000 0.000405
23.675900 0.000405
23.685800 0.000405
23.695700 0.000404
23.705600 0.000404
23.715500 0.000404
23.725400 0.000403
23.735300 0.000403
23.745200 0.000402
23.755100 0.000402
23.765000 0.000402
23.774900 0.000401
23.784800 0.000401
23.794700 0.000401
23.804600 0.000400
23.814500 0.000400
23.824400 0.000400
23.834300 0.000399
23.844200 0.000399
23.854100 0.000398
23.864000 0.000398
23.873900 0.000398
23.883800 0.000397
23.893700 0.000397
23.903600 0.000397
23.913500 0.000396
23.923400 0.000396
23.933300 0.000395
23.943200 0.000395
23.953100 0.000395
23.963000 0.000394
23.972900 0.000394
23.982800 0.000394
23.992700 0.000393
24.002600 0.000393
24.012500 0.000393
24.022400 0.000392
24.032300 0.000392
24.042200 0.000392
24.052100 0.000391
24.062000 0.000391
24.071900 0.000390
24.081800 0.000390
24.091700 0.000390
24.101600 0.000389
24.111500 0.000389
24.121400 0.000389
24.131300 0.000388
24.141200 0.000388
24.151100 0.000388
24.161000 0.000387
24.170900 0.000387
24.180800 0.000387
24.190700 0.000386
24.200600 0.000386
24.210500 0.000386
24.220400 0.000385
24.230300 0.000385
24.240200 0.000385
24.250100 0.000384
24.260000 0.000384
24.269900 0.000384
24.279800 0.000383
24.289700 0.000383
24.299600 0.000382
24.309500 0.000382
24.319400 0.000382
24.329300 0.000381
24.339200 0.000381
24.349100 0.000381
24.359000 0.000380
24.368900 0.000380
24.378800 0.000380
24.388700 0.000379
24.398600 0.000379
24.408500 0.000379
24.418400 0.000378
24.428300 0.000378
24.438200 0.000378
24.448100 0.000377
24.458000 0.000377
24.467900 0.000377
24.477800 0.000376
24.487700 0.000376
24.497600 0.000376
24.507500 0.000375
24.517400 0.000375
24.527300 0.000375
24.537200 0.000374
24.547100 0.000374
24.557000 0.000374
24.566900 0.000373
24.576800 0.000373
24.586700 0.000373
24.596600 0.000372
24.606500 0.000372
24.616400 0.000372
24.626300 0.000371
24.636200 0.000371
24.646100 0.000371
24.656000 0.000370
24.665900 0.000370
24.675800 0.000370
24.685700 0.000369
24.695600 0.000369
24.705500 0.000369
24.715400 0.000368
24.725300 0.000368
24.735200 0.000368
24.745100 0.000368
24.755000 0.000367
24.764900 0.000367
24.774800 0.000367
24.784700 0.000366
24.794600 0.000366
24.804500 0.000366
24.814400 0.000365
24.824300 0.000365
24.834200 0.000365
24.844100 0.000364
24.854000 0.000364
24.863900 0.000364
24.873800 0.000363
24.883700 0.000363
24.893600 0.000363
24.903500 0.000362
24.913400 0.000362
24.923300 0.000362
24.933200 0.000361
24.943100 0.000361
24.953000 0.000361
24.962900 0.000361
24.972800 0.000360
24.982700 0.000360
24.992600 0.000360
25.002500 0.000359
25.012400 0.000359
25.022300 0.000359
25.032200 0.000358
25.042100 0.000358
25.052000 0.000358
25.061900 0.000357
25.071800 0.000357
25.081700 0.000357
25.091600 0.000356
25.101500 0.000356
25.111400 0.000356
25.121300 0.000356
25.131200 0.000355
25.141100 0.000355
25.151000 0.000355
25.160900 0.000354
25.170800 0.000354
25.180700 0.000354
25.190600 0.000353
25.200500 0.000353
25.210400 0.000353
25.220300 0.000353
25.230200 0.000352
25.240100 0.000352
25.250000 0.000352
25.259900 0.000351
25.269800 0.000351
25.279700 0.000351
25.289600 0.000350
25.299500 0.000350
25.309400 0.000350
25.319300 0.000350
25.329200 0.000349
25.339100 0.000349
25.349000 0.000349
25.358900 0.000348
25.368800 0.000348
25.378700 0.000348
25.388600 0.000347
25.398500 0.000347
25.408400 0.000347
25.418300 0.000347
25.428200 0.000346
25.438100 0.000346
25.448000 0.000346
25.457900 0.000345
25.467800 0.000345
25.477700 0.000345
25.487600 0.000344
25.497500 0.000344
25.507400 0.000344
25.517300 0.000344
25.527200 0.000343
25.537100 0.000343
25.547000 0.000343
25.556900 0.000342
25.566800 0.000342
25.576700 0.000342
25.586600 0.000342
25.596500 0.000341
25.606400 0.000341
25.616300 0.000341
25.626200 0.000340
25.636100 0.000340
25.646000 0.000340
25.655900 0.000340
25.665800 0.000339
25.675700 0.000339
25.685600 0.000339
25.695500 0.000338
25.705400 0.000338
25.715300 0.000338
25.725200 0.000338
25.735100 0.000337
25.745000 0.000337
25.754900 0.000337
25.764800 0.000336
25.774700 0.000336
25.784600 0.000336
25.794500 0.000336
25.804400 0.000335
25.814300 0.000335
25.824200 0.000335
25.834100 0.000335
25.844000 0.000334
25.853900 0.000334
25.863800 0.000334
25.873700 0.000333
25.883600 0.000333
25.893500 0.000333
25.903400 0.000333
25.913300 0.000332
25.923200 0.000332
25.933100 0.000332
25.943000 0.000331
25.952900 0.000331
25.962800 0.000331
25.972700 0.000331
25.982600 0.000330
25.992500 0.000330
26.002400 0.000330
26.012300 0.000330
26.022200 0.000329
26.032100 0.000329
26.042000 0.000329
26.051900 0.000328
26.061800 0.000328
26.071700 0.000328
26.081600 0.000328
26.091500 0.000327
26.101400 0.000327
26.111300 0.000327
26.121200 0.000327
26.131100 0.000326
26.141000 0.000326
26.150900 0.000326
26.160800 0.000326
26.170700 0.000325
26.180600 0.000325
26.190500 0.000325
26.200400 0.000324
26.210300 0.000324
26.220200 0.000324
26.230100 0.000324
26.240000 0.000323
26.249900 0.000323
26.259800 0.000323
26.269700 0.000323
26.279600 0.000322
26.289500 0.000322
26.299400 0.000322
26.309300 0.000322
26.319200 0.000321
26.329100 0.000321
26.339000 0.000321
26.348900 0.000320
26.358800 0.000320
26.368700 0.000320
26.378600 0.000320
26.388500 0.000319
26.398400 0.000319
26.408300 0.000319
26.418200 0.000319
26.428100 0.000318
26.438000 0.000318
26.447900 0.000318
26.457800 0.000318
26.467700 0.000317
26.477600 0.000317
26.487500 0.000317
26.497400 0.000317
26.507300 0.000316
26.517200 0.000316
26.527100 0.000316
26.537000 0.000316
26.546900 0.000315
26.556800 0.000315
26.566700 0.000315
26.576600 0.000315
26.586500 0.000314
26.596400 0.000314
26.606300 0.000314
26.616200 0.000314
26.626100 0.000313
26.636000 0.000313
26.645900 0.000313
26.655800 0.000313
26.665700 0.000312
26.675600 0.000312
26.685500 0.000312
26.695400 0.000312
26.705300 0.000311
26.715200 0.000311
26.725100 0.000311
26.735000 0.000311
26.744900 0.000310
26.754800 0.000310
26.764700 0.000310
26.774600 0.000310
26.784500 0.000309
26.794400 0.000309
26.804300 0.000309
26.814200 0.000309
26.824100 0.000308
26.834000 0.000308
26.843900 0.000308
26.853800 0.000308
26.863700 0.000307
26.873600 0.000307
26.883500 0.000307
26.893400 0.000307
26.903300 0.000306
26.913200 0.000306
26.923100 0.000306
26.933000 0.000306
26.942900 0.000305
26.952800 0.000305
26.962700 0.000305
26.972600 0.000305
26.982500 0.000304
26.992400 0.000304
27.002300 0.000304
27.012200 0.000304
27.022100 0.000303
27.032000 0.000303
27.041900 0.000303
27.051800 0.000303
27.061700 0.000303
27.071600 0.000302
27.081500 0.000302
27.091400 0.000302
27.101300 0.000302
27.111200 0.000301
27.121100 0.000301
27.131000 0.000301
27.140900 0.000301
27.150800 0.000300
27.160700 0.000300
27.170600 0.000300
27.180500 0.000300
27.190400 0.000299
27.200300 0.000299
27.210200 0.000299
27.220100 0.000299
27.230000 0.000299
27.239900 0.000298
27.249800 0.000298
27.259700 0.000298
27.269600 0.000298
27.279500 0.000297
27.289400 0.000297
27.299300 0.000297
27.309200 0.000297
27.319100 0.000296
27.329000 0.000296
27.338900 0.000296
27.348800 0.000296
27.358700 0.000295
27.368600 0.000295
27.378500 0.000295
27.388400 0.000295
27.398300 0.000295
27.408200 0.000294
27.418100 0.000294
27.428000 0.000294
27.437900 0.000294
27.447800 0.000293
27.457700 0.000293
27.467600 0.000293
27.477500 0.000293
27.487400 0.000293
27.497300 0.000292
27.507200 0.000292
27.517100 0.000292
27.527000 0.000292
27.536900 0.000291
27.546800 0.000291
27.556700 0.000291
27.566600 0.000291
27.576500 0.000290
27.586400 0.000290
27.596300 0.000290
27.606200 0.000290
27.616100 0.000290
27.626000 0.000289
27.635900 0.000289
27.645800 0.000289
27.655700 0.000289
27.665600 0.000288
27.675500 0.000288
27.685400 0.000288
27.695300 0.000288
27.705200 0.000288
27.715100 0.000287
27.725000 0.000287
27.734900 0.000287
27.744800 0.000287
27.754700 0.000286
27.764600 0.000286
27.774500 0.000286
27.784400 0.000286
27.794300 0.000286
27.804200 0.000285
27.814100 0.000285
27.824000 0.000285
27.833900 0.000285
27.843800 0.000285
27.853700 0.000284
27.863600 0.000284
27.873500 0.000284
27.883400 0.000284
27.893300 0.000283
27.903200 0.000283
27.913100 0.000283
27.923000 0.000283
27.932900 0.000283
27.942800 0.000282
27.952700 0.000282
27.962600 0.000282
27.972500 0.000282
27.982400 0.000282
27.992300 0.000281
28.002200 0.000281
28.012100 0.000281
28.022000 0.000281
28.031900 0.000280
28.041800 0.000280
28.051700 0.000280
28.061600 0.000280
28.071500 0.000280
28.081400 0.000279
28.091300 0.000279
28.101200 0.000279
28.111100 0.000279
28.121000 0.000279
28.130900 0.000278
28.140800 0.000278
28.150700 0.000278
28.160600 0.000278
28.170500 0.000277
28.180400 0.000277
28.190300 0.000277
28.200200 0.000277
28.210100 0.000277
28.220000 0.000276
28.229900 0.000276
28.239800 0.000276
28.249700 0.000276
28.259600 0.000276
28.269500 0.000275
28.279400 0.000275
28.289300 0.000275
28.299200 0.000275
28.309100 0.000275
28.319000 0.000274
28.328900 0.000274
28.338800 0.000274
28.348700 0.000274
28.358600 0.000274
28.368500 0.000273
28.378400 0.000273
28.388300 0.000273
28.398200 0.000273
28.408100 0.000273
28.418000 0.000272
28.427900 0.000272
28.437800 0.000272
28.447700 0.000272
28.457600 0.000272
28.467500 0.000271
28.477400 0.000271
28.487300 0.000271
28.497200 0.000271
28.507100 0.000271
28.517000 0.000270
28.526900 0.000270
28.536800 0.000270
28.546700 0.000270
28.556600 0.000270
28.566500 0.000269
28.576400 0.000269
28.586300 0.000269
28.596200 0.000269
28.606100 0.000269
28.616000 0.000268
28.625900 0.000268
28.635800 0.000268
28.645700 0.000268
28.655600 0.000268
28.665500 0.000267
28.675400 0.000267
28.685300 0.000267
28.695200 0.000267
28.705100 0.000267
28.715000 0.000266
28.724900 0.000266
28.734800 0.000266
28.744700 0.000266
28.754600 0.000266
28.764500 0.000265
28.774400 0.000265
28.784300 0.000265
28.794200 0.000265
28.804100 0.000265
28.814000 0.000264
28.823900 0.000264
28.833800 0.000264
28.843700 0.000264
28.853600 0.000264
28.863500 0.000263
28.873400 0.000263
28.883300 0.000263
28.893200 0.000263
28.903100 0.000263
28.913000 0.000262
28.922900 0.000262
28.932800 0.000262
28.942700 0.000262
28.952600 0.000262
28.962500 0.000262
28.972400 0.000261
28.982300 0.000261
28.992200 0.000261
29.002100 0.000261
29.012000 0.000261
29.021900 0.000260
29.031800 0.000260
29.041700 0.000260
29.051600 0.000260
29.061500 0.000260
29.071400 0.000259
29.081300 0.000259
29.091200 0.000259
29.101100 0.000259
29.111000 0.000259
29.120900 0.000258
29.130800 0.000258
29.140700 0.000258
29.150600 0.000258
29.160500 0.000258
29.170400 0.000258
29.180300 0.000257
29.190200 0.000257
29.200100 0.000257
29.210000 0.000257
29.219900 0.000257
29.229800 0.000256
29.239700 0.000256
29.249600 0.000256
29.259500 0.000256
29.269400 0.000256
29.279300 0.000256
29.289200 0.000255
29.299100 0.000255
29.309000 0.000255
29.318900 0.000255
29.328800 0.000255
29.338700 0.000254
29.348600 0.000254
29.358500 0.000254
29.368400 0.000254
29.378300 0.000254
29.388200 0.000254
29.398100 0.000253
29.408000 0.000253
29.417900 0.000253
29.427800 0.000253
29.437700 0.000253
29.447600 0.000252
29.457500 0.000252
29.467400 0.000252
29.477300 0.000252
29.487200 0.000252
29.497100 0.000252
29.507000 0.000251
29.516900 0.000251
29.526800 0.000251
29.536700 0.000251
29.546600 0.000251
29.556500 0.000250
29.566400 0.000250
29.576300 0.000250
29.586200 0.000250
29.596100 0.000250
29.606000 0.000250
29.615900 0.000249
29.625800 0.000249
29.635700 0.000249
29.645600 0.000249
29.655500 0.000249
29.665400 0.000248
29.675300 0.000248
29.685200 0.000248
29.695100 0.000248
29.705000 0.000248
29.714900 0.000248
29.724800 0.000247
29.734700 0.000247
29.744600 0.000247
29.754500 0.000247
29.764400 0.000247
29.774300 0.000247
29.784200 0.000246
29.794100 0.000246
29.804000 0.000246
29.813900 0.000246
29.823800 0.000246
29.833700 0.000246
29.843600 0.000245
29.853500 0.000245
29.863400 0.000245
29.873300 0.000245
29.883200 0.000245
29.893100 0.000244
29.903000 0.000244
29.912900 0.000244
29.922800 0.000244
29.932700 0.000244
29.942600 0.000244
29.952500 0.000243
29.962400 0.000243
29.972300 0.000243
29.982200 0.000243
29.992100 0.000243
30.002000 0.000243
30.011900 0.000242
30.021800 0.000242
30.031700 0.000242
30.041600 0.000242
30.051500 0.000242
30.061400 0.000242
30.071300 0.000241
30.081200 0.000241
30.091100 0.000241
30.101000 0.000241
30.110900 0.000241
30.120800 0.000241
30.130700 0.000240
30.140600 0.000240
30.150500 0.000240
30.160400 0.000240
30.170300 0.000240
30.180200 0.000240
30.190100 0.000239
30.200000 0.000239
30.209900 0.000239
30.219800 0.000239
30.229700 0.000239
30.239600 0.000239
30.249500 0.000238
30.259400 0.000238
30.269300 0.000238
30.279200 0.000238
30.289100 0.000238
30.299000 0.000238
30.308900 0.000237
30.318800 0.000237
30.328700 0.000237
30.338600 0.000237
30.348500 0.000237
30.358400 0.000237
30.368300 0.000236
30.378200 0.000236
30.388100 0.000236
30.398000 0.000236
30.407900 0.000236
30.417800 0.000236
30.427700 0.000235
30.437600 0.000235
30.447500 0.000235
30.457400 0.000235
30.467300 0.000235
30.477200 0.000235
30.487100 0.000234
30.497000 0.000234
30.506900 0.000234
30.516800 0.000234
30.526700 0.000234
30.536600 0.000234
30.546500 0.000234
30.556400 0.000233
30.566300 0.000233
30.576200 0.000233
30.586100 0.000233
30.596000 0.000233
30.605900 0.000233
30.615800 0.000232
30.625700 0.000232
30.635600 0.000232
30.645500 0.000232
30.655400 0.000232
30.665300 0.000232
30.675200 0.000231
30.685100 0.000231
30.695000 0.000231
30.704900 0.000231
30.714800 0.000231
30.724700 0.000231
30.734600 0.000231
30.744500 0.000230
30.754400 0.000230
30.764300 0.000230
30.774200 0.000230
30.784100 0.000230
30.794000 0.000230
30.803900 0.000229
30.813800 0.000229
30.823700 0.000229
30.833600 0.000229
30.843500 0.000229
30.853400 0.000229
30.863300 0.000228
30.873200 0.000228
30.883100 0.000228
30.893000 0.000228
30.902900 0.000228
30.912800 0.000228
30.922700 0.000228
30.932600 0.000227
30.942500 0.000227
30.952400 0.000227
30.962300 0.000227
30.972200 0.000227
30.982100 0.000227
30.992000 0.000226
31.001900 0.000226
31.011800 0.000226
31.021700 0.000226
31.031600 0.000226
31.041500 0.000226
31.051400 0.000226
31.061300 0.000225
31.071200 0.000225
31.081100 0.000225
31.091000 0.000225
31.100900 0.000225
31.110800 0.000225
31.120700 0.000224
31.130600 0.000224
31.140500 0.000224
31.150400 0.000224
31.160300 0.000224
31.170200 0.000224
31.180100 0.000224
31.190000 0.000223
31.199900 0.000223
31.209800 0.000223
31.219700 0.000223
31.229600 0.000223
31.239500 0.000223
31.249400 0.000223
31.259300 0.000222
31.269200 0.000222
31.279100 0.000222
31.289000 0.000222
31.298900 0.000222
31.308800 0.000222
31.318700 0.000222
31.328600 0.000221
31.338500 0.000221
31.348400 0.000221
31.358300 0.000221
31.368200 0.000221
31.378100 0.000221
31.388000 0.000220
31.397900 0.000220
31.407800 0.000220
31.417700 0.000220
31.427600 0.000220
31.437500 0.000220
31.447400 0.000220
31.457300 0.000219
31.467200 0.000219
31.477100 0.000219
31.487000 0.000219
31.496900 0.000219
31.506800 0.000219
31.516700 0.000219
31.526600 0.000218
31.536500 0.000218
31.546400 0.000218
31.556300 0.000218
31.566200 0.000218
31.576100 0.000218
31.586000 0.000218
31.595900 0.000217
31.605800 0.000217
31.615700 0.000217
31.625600 0.000217
31.635500 0.000217
31.645400 0.000217
31.655300 0.000217
31.665200 0.000216
31.675100 0.000216
31.685000 0.000216
31.694900 0.000216
31.704800 0.000216
31.714700 0.000216
31.724600 0.000216
31.734500 0.000215
31.744400 0.000215
31.754300 0.000215
31.764200 0.000215
31.774100 0.000215
31.784000 0.000215
31.793900 0.000215
31.803800 0.000214
31.813700 0.000214
31.823600 0.000214
31.833500 0.000214
31.843400 0.000214
31.853300 0.000214
31.863200 0.000214
31.873100 0.000213
31.883000 0.000213
31.892900 0.000213
31.902800 0.000213
31.912700 0.000213
31.922600 0.000213
31.932500 0.000213
31.942400 0.000212
31.952300 0.000212
31.962200 0.000212
31.972100 0.000212
31.982000 0.000212
31.991900 0.000212
32.001800 0.000212
32.011700 0.000212
32.021600 0.000211
32.031500 0.000211
32.041400 0.000211
32.051300 0.000211
32.061200 0.000211
32.071100 0.000211
32.081000 0.000211
32.090900 0.000210
32.100800 0.000210
32.110700 0.000210
32.120600 0.000210
32.130500 0.000210
32.140400 0.000210
32.150300 0.000210
32.160200 0.000209
32.170100 0.000209
32.180000 0.000209
32.189900 0.000209
32.199800 0.000209
32.209700 0.000209
32.219600 0.000209
32.229500 0.000209
32.239400 0.000208
32.249300 0.000208
32.259200 0.000208
32.269100 0.000208
32.279000 0.000208
32.288900 0.000208
32.298800 0.000208
32.308700 0.000207
32.318600 0.000207
32.328500 0.000207
32.338400 0.000207
32.348300 0.000207
32.358200 0.000207
32.368100 0.000207
32.378000 0.000206
32.387900 0.000206
32.397800 0.000206
32.407700 0.000206
32.417600 0.000206
32.427500 0.000206
32.437400 0.000206
32.447300 0.000206
32.457200 0.000205
32.467100 0.000205
32.477000 0.000205
32.486900 0.000205
32.496800 0.000205
32.506700 0.000205
32.516600 0.000205
32.526500 0.000205
32.536400 0.000204
32.546300 0.000204
32.556200 0.000204
32.566100 0.000204
32.576000 0.000204
32.585900 0.000204
32.595800 0.000204
32.605700 0.000203
32.615600 0.000203
32.625500 0.000203
32.635400 0.000203
32.645300 0.000203
32.655200 0.000203
32.665100 0.000203
32.675000 0.000203
32.684900 0.000202
32.694800 0.000202
32.704700 0.000202
32.714600 0.000202
32.724500 0.000202
32.734400 0.000202
32.744300 0.000202
32.754200 0.000202
32.764100 0.000201
32.774000 0.000201
32.783900 0.000201
32.793800 0.000201
32.803700 0.000201
32.813600 0.000201
32.823500 0.000201
32.833400 0.000201
32.843300 0.000200
32.853200 0.000200
32.863100 0.000200
32.873000 0.000200
32.882900 0.000200
32.892800 0.000200
32.902700 0.000200
32.912600 0.000200
32.922500 0.000199
32.932400 0.000199
32.942300 0.000199
32.952200 0.000199
32.962100 0.000199
32.972000 0.000199
32.981900 0.000199
32.991800 0.000199
33.001700 0.000198
33.011600 0.000198
33.021500 0.000198
33.031400 0.000198
33.041300 0.000198
33.051200 0.000198
33.061100 0.000198
33.071000 0.000198
33.080900 0.000197
33.090800 0.000197
33.100700 0.000197
33.110600 0.000197
33.120500 0.000197
33.130400 0.000197
33.140300 0.000197
33.150200 0.000197
33.160100 0.000196
33.170000 0.000196
33.179900 0.000196
33.189800 0.000196
33.199700 0.000196
33.209600 0.000196
33.219500 0.000196
33.229400 0.000196
33.239300 0.000195
33.249200 0.000195
33.259100 0.000195
33.269000 0.000195
33.278900 0.000195
33.288800 0.000195
33.298700 0.000195
33.308600 0.000195
33.318500 0.000194
33.328400 0.000194
33.338300 0.000194
33.348200 0.000194
33.358100 0.000194
33.368000 0.000194
33.377900 0.000194
33.387800 0.000194
33.397700 0.000193
33.407600 0.000193
33.417500 0.000193
33.427400 0.000193
33.437300 0.000193
33.447200 0.000193
33.457100 0.000193
33.467000 0.000193
33.476900 0.000193
33.486800 0.000192
33.496700 0.000192
33.506600 0.000192
33.516500 0.000192
33.526400 0.000192
33.536300 0.000192
33.546200 0.000192
33.556100 0.000192
33.566000 0.000191
33.575900 0.000191
33.585800 0.000191
33.595700 0.000191
33.605600 0.000191
33.615500 0.000191
33.625400 0.000191
33.635300 0.000191
33.645200 0.000190
33.655100 0.000190
33.665000 0.000190
33.674900 0.000190
33.684800 0.000190
33.694700 0.000190
33.704600 0.000190
33.714500 0.000190
33.724400 0.000190
33.734300 0.000189
33.744200 0.000189
33.754100 0.000189
33.764000 0.000189
33.773900 0.000189
33.783800 0.000189
33.793700 0.000189
33.803600 0.000189
33.813500 0.000189
33.823400 0.000188
33.833300 0.000188
33.843200 0.000188
33.853100 0.000188
33.863000 0.000188
33.872900 0.000188
33.882800 0.000188
33.892700 0.000188
33.902600 0.000187
33.912500 0.000187
33.922400 0.000187
33.932300 0.000187
33.942200 0.000187
33.952100 0.000187
33.962000 0.000187
33.971900 0.000187
33.981800 0.000187
33.991700 0.000186
34.001600 0.000186
34.011500 0.000186
34.021400 0.000186
34.031300 0.000186
34.041200 0.000186
34.051100 0.000186
34.061000 0.000186
34.070900 0.000186
34.080800 0.000185
34.090700 0.000185
34.100600 0.000185
34.110500 0.000185
34.120400 0.000185
34.130300 0.000185
34.140200 0.000185
34.150100 0.000185
34.160000 0.000185
34.169900 0.000184
34.179800 0.000184
34.189700 0.000184
34.199600 0.000184
34.209500 0.000184
34.219400 0.000184
34.229300 0.000184
34.239200 0.000184
34.249100 0.000184
34.259000 0.000183
34.268900 0.000183
34.278800 0.000183
34.288700 0.000183
34.298600 0.000183
34.308500 0.000183
34.318400 0.000183
34.328300 0.000183
34.338200 0.000183
34.348100 0.000182
34.358000 0.000182
34.367900 0.000182
34.377800 0.000182
34.387700 0.000182
34.397600 0.000182
34.407500 0.000182
34.417400 0.000182
34.427300 0.000182
34.437200 0.000181
34.447100 0.000181
34.457000 0.000181
34.466900 0.000181
34.476800 0.000181
34.486700 0.000181
34.496600 0.000181
34.506500 0.000181
34.516400 0.000181
34.526300 0.000180
34.536200 0.000180
34.546100 0.000180
34.556000 0.000180
34.565900 0.000180
34.575800 0.000180
34.585700 0.000180
34.595600 0.000180
34.605500 0.000180
34.615400 0.000179
34.625300 0.000179
34.635200 0.000179
34.645100 0.000179
34.655000 0.000179
34.664900 0.000179
34.674800 0.000179
34.684700 0.000179
34.694600 0.000179
34.704500 0.000179
34.714400 0.000178
34.724300 0.000178
34.734200 0.000178
34.744100 0.000178
34.754000 0.000178
34.763900 0.000178
34.773800 0.000178
34.783700 0.000178
34.793600 0.000178
34.803500 0.000177
34.813400 0.000177
34.823300 0.000177
34.833200 0.000177
34.843100 0.000177
34.853000 0.000177
34.862900 0.000177
34.872800 0.000177
34.882700 0.000177
34.892600 0.000177
34.902500 0.000176
34.912400 0.000176
34.922300 0.000176
34.932200 0.000176
34.942100 0.000176
34.952000 0.000176
34.961900 0.000176
34.971800 0.000176
34.981700 0.000176
34.991600 0.000175
35.001500 0.000175
35.011400 0.000175
35.021300 0.000175
35.031200 0.000175
35.041100 0.000175
35.051000 0.000175
35.060900 0.000175
35.070800 0.000175
35.080700 0.000175
35.090600 0.000174
35.100500 0.000174
35.110400 0.000174
35.120300 0.000174
35.130200 0.000174
35.140100 0.000174
35.150000 0.000174
35.159900 0.000174
35.169800 0.000174
35.179700 0.000174
35.189600 0.000173
35.199500 0.000173
35.209400 0.000173
35.219300 0.000173
35.229200 0.000173
35.239100 0.000173
35.249000 0.000173
35.258900 0.000173
35.268800 0.000173
35.278700 0.000173
35.288600 0.000172
35.298500 0.000172
35.308400 0.000172
35.318300 0.000172
35.328200 0.000172
35.338100 0.000172
35.348000 0.000172
35.357900 0.000172
35.367800 0.000172
35.377700 0.000172
35.387600 0.000171
35.397500 0.000171
35.407400 0.000171
35.417300 0.000171
35.427200 0.000171
35.437100 0.000171
35.447000 0.000171
35.456900 0.000171
35.466800 0.000171
35.476700 0.000171
35.486600 0.000170
35.496500 0.000170
35.506400 0.000170
35.516300 0.000170
35.526200 0.000170
35.536100 0.000170
35.546000 0.000170
35.555900 0.000170
35.565800 0.000170
35.575700 0.000170
35.585600 0.000169
35.595500 0.000169
35.605400 0.000169
35.615300 0.000169
35.625200 0.000169
35.635100 0.000169
35.645000 0.000169
35.654900 0.000169
35.664800 0.000169
35.674700 0.000169
35.684600 0.000168
35.694500 0.000168
35.704400 0.000168
35.714300 0.000168
35.724200 0.000168
35.734100 0.000168
35.744000 0.000168
35.753900 0.000168
35.763800 0.000168
35.773700 0.000168
35.783600 0.000167
35.793500 0.000167
35.803400 0.000167
35.813300 0.000167
35.823200 0.000167
35.833100 0.000167
35.843000 0.000167
35.852900 0.000167
35.862800 0.000167
35.872700 0.000167
35.882600 0.000167
35.892500 0.000166
35.902400 0.000166
35.912300 0.000166
35.922200 0.000166
35.932100 0.000166
35.942000 0.000166
35.951900 0.000166
35.961800 0.000166
35.971700 0.000166
35.981600 0.000166
35.991500 0.000165
36.001400 0.000165
36.011300 0.000165
36.021200 0.000165
36.031100 0.000165
36.041000 0.000165
36.050900 0.000165
36.060800 0.000165
36.070700 0.000165
36.080600 0.000165
36.090500 0.000165
36.100400 0.000164
36.110300 0.000164
36.120200 0.000164
36.130100 0.000164
36.140000 0.000164
36.149900 0.000164
36.159800 0.000164
36.169700 0.000164
36.179600 0.000164
36.189500 0.000164
36.199400 0.000163
36.209300 0.000163
36.219200 0.000163
36.229100 0.000163
36.239000 0.000163
36.248900 0.000163
36.258800 0.000163
36.268700 0.000163
36.278600 0.000163
36.288500 0.000163
36.298400 0.000163
36.308300 0.000162
36.318200 0.000162
36.328100 0.000162
36.338000 0.000162
36.347900 0.000162
36.357800 0.000162
36.367700 0.000162
36.377600 0.000162
36.387500 0.000162
36.397400 0.000162
36.407300 0.000162
36.417200 0.000161
36.427100 0.000161
36.437000 0.000161
36.446900 0.000161
36.456800 0.000161
36.466700 0.000161
36.476600 0.000161
36.486500 0.000161
36.496400 0.000161
36.506300 0.000161
36.516200 0.000161
36.526100 0.000160
36.536000 0.000160
36.545900 0.000160
36.555800 0.000160
36.565700 0.000160
36.575600 0.000160
36.585500 0.000160
36.595400 0.000160
36.605300 0.000160
36.615200 0.000160
36.625100 0.000160
36.635000 0.000159
36.644900 0.000159
36.654800 0.000159
36.664700 0.000159
36.674600 0.000159
36.684500 0.000159
36.694400 0.000159
36.704300 0.000159
36.714200 0.000159
36.724100 0.000159
36.734000 0.000159
36.743900 0.000158
36.753800 0.000158
36.763700 0.000158
36.773600 0.000158
36.783500 0.000158
36.793400 0.000158
36.803300 0.000158
36.813200 0.000158
36.823100 0.000158
36.833000 0.000158
36.842900 0.000158
36.852800 0.000158
36.862700 0.000157
36.872600 0.000157
36.882500 0.000157
36.892400 0.000157
36.902300 0.000157
36.912200 0.000157
36.922100 0.000157
36.932000 0.000157
36.941900 0.000157
36.951800 0.000157
36.961700 0.000157
36.971600 0.000156
36.981500 0.000156
36.991400 0.000156
37.001300 0.000156
37.011200 0.000156
37.021100 0.000156
37.031000 0.000156
37.040900 0.000156
37.050800 0.000156
37.060700 0.000156
37.070600 0.000156
37.080500 0.000156
37.090400 0.000155
37.100300 0.000155
37.110200 0.000155
37.120100 0.000155
37.130000 0.000155
37.139900 0.000155
37.149800 0.000155
37.159700 0.000155
37.169600 0.000155
37.179500 0.000155
37.189400 0.000155
37.199300 0.000154
37.209200 0.000154
37.219100 0.000154
37.229000 0.000154
37.238900 0.000154
37.248800 0.000154
37.258700 0.000154
37.268600 0.000154
37.278500 0.000154
37.288400 0.000154
37.298300 0.000154
37.308200 0.000154
37.318100 0.000153
37.328000 0.000153
37.337900 0.000153
37.347800 0.000153
37.357700 0.000153
37.367600 0.000153
37.377500 0.000153
37.387400 0.000153
37.397300 0.000153
37.407200 0.000153
37.417100 0.000153
37.427000 0.000153
37.436900 0.000152
37.446800 0.000152
37.456700 0.000152
37.466600 0.000152
37.476500 0.000152
37.486400 0.000152
37.496300 0.000152
37.506200 0.000152
37.516100 0.000152
37.526000 0.000152
37.535900 0.000152
37.545800 0.000152
37.555700 0.000151
37.565600 0.000151
37.575500 0.000151
37.585400 0.000151
37.595300 0.000151
37.605200 0.000151
37.615100 0.000151
37.625000 0.000151
37.634900 0.000151
37.644800 0.000151
37.654700 0.000151
37.664600 0.000151
37.674500 0.000150
37.684400 0.000150
37.694300 0.000150
37.704200 0.000150
37.714100 0.000150
37.724000 0.000150
37.733900 0.000150
37.743800 0.000150
37.753700 0.000150
37.763600 0.000150
37.773500 0.000150
37.783400 0.000150
37.793300 0.000149
37.803200 0.000149
37.813100 0.000149
37.823000 0.000149
37.832900 0.000149
37.842800 0.000149
37.852700 0.000149
37.862600 0.000149
37.872500 0.000149
37.882400 0.000149
37.892300 0.000149
37.902200 0.000149
37.912100 0.000149
37.922000 0.000148
37.931900 0.000148
37.941800 0.000148
37.951700 0.000148
37.961600 0.000148
37.971500 0.000148
37.981400 0.000148
37.991300 0.000148
38.001200 0.000148
38.011100 0.000148
38.021000 0.000148
38.030900 0.000148
38.040800 0.000147
38.050700 0.000147
38.060600 0.000147
38.070500 0.000147
38.080400 0.000147
38.090300 0.000147
38.100200 0.000147
38.110100 0.000147
38.120000 0.000147
38.129900 0.000147
38.139800 0.000147
38.149700 0.000147
38.159600 0.000147
38.169500 0.000146
38.179400 0.000146
38.189300 0.000146
38.199200 0.000146
38.209100 0.000146
38.219000 0.000146
38.228900 0.000146
38.238800 0.000146
38.248700 0.000146
38.258600 0.000146
38.268500 0.000146
38.278400 0.000146
38.288300 0.000146
38.298200 0.000145
38.308100 0.000145
38.318000 0.000145
38.327900 0.000145
38.337800 0.000145
38.347700 0.000145
38.357600 0.000145
38.367500 0.000145
38.377400 0.000145
38.387300 0.000145
38.397200 0.000145
38.407100 0.000145
38.417000 0.000144
38.426900 0.000144
38.436800 0.000144
38.446700 0.000144
38.456600 0.000144
38.466500 0.000144
38.476400 0.000144
38.486300 0.000144
38.496200 0.000144
38.506100 0.000144
38.516000 0.000144
38.525900 0.000144
38.535800 0.000144
38.545700 0.000143
38.555600 0.000143
38.565500 0.000143
38.575400 0.000143
38.585300 0.000143
38.595200 0.000143
38.605100 0.000143
38.615000 0.000143
38.624900 0.000143
38.634800 0.000143
38.644700 0.000143
38.654600 0.000143
38.664500 0.000143
38.674400 0.000143
38.684300 0.000142
38.694200 0.000142
38.704100 0.000142
38.714000 0.000142
38.723900 0.000142
38.733800 0.000142
38.743700 0.000142
38.753600 0.000142
38.763500 0.000142
38.773400 0.000142
38.783300 0.000142
38.793200 0.000142
38.803100 0.000142
38.813000 0.000141
38.822900 0.000141
38.832800 0.000141
38.842700 0.000141
38.852600 0.000141
38.862500 0.000141
38.872400 0.000141
38.882300 0.000141
38.892200 0.000141
38.902100 0.000141
38.912000 0.000141
38.921900 0.000141
38.931800 0.000141
38.941700 0.000140
38.951600 0.000140
38.961500 0.000140
38.971400 0.000140
38.981300 0.000140
38.991200 0.000140
39.001100 0.000140
39.011000 0.000140
39.020900 0.000140
39.030800 0.000140
39.040700 0.000140
39.050600 0.000140
39.060500 0.000140
39.070400 0.000140
39.080300 0.000139
39.090200 0.000139
39.100100 0.000139
39.110000 0.000139
39.119900 0.000139
39.129800 0.000139
39.139700 0.000139
39.149600 0.000139
39.159500 0.000139
39.169400 0.000139
39.179300 0.000139
39.189200 0.000139
39.199100 0.000139
39.209000 0.000139
39.218900 0.000138
39.228800 0.000138
39.238700 0.000138
39.248600 0.000138
39.258500 0.000138
39.268400 0.000138
39.278300 0.000138
39.288200 0.000138
39.298100 0.000138
39.308000 0.000138
39.317900 0.000138
39.327800 0.000138
39.337700 0.000138
39.347600 0.000138
39.357500 0.000137
39.367400 0.000137
39.377300 0.000137
39.387200 0.000137
39.397100 0.000137
39.407000 0.000137
39.416900 0.000137
39.426800 0.000137
39.436700 0.000137
39.446600 0.000137
39.456500 0.000137
39.466400 0.000137
39.476300 0.000137
39.486200 0.000137
39.496100 0.000136
39.506000 0.000136
39.515900 0.000136
39.525800 0.000136
39.535700 0.000136
39.545600 0.000136
39.555500 0.000136
39.565400 0.000136
39.575300 0.000136
39.585200 0.000136
39.595100 0.000136
39.605000 0.000136
39.614900 0.000136
39.624800 0.000136
39.634700 0.000135
39.644600 0.000135
39.654500 0.000135
39.664400 0.000135
39.674300 0.000135
39.684200 0.000135
39.694100 0.000135
39.704000 0.000135
39.713900 0.000135
39.723800 0.000135
39.733700 0.000135
39.743600 0.000135
39.753500 0.000135
39.763400 0.000135
39.773300 0.000134
39.783200 0.000134
39.793100 0.000134
39.803000 0.000134
39.812900 0.000134
39.822800 0.000134
39.832700 0.000134
39.842600 0.000134
39.852500 0.000134
39.862400 0.000134
39.872300 0.000134
39.882200 0.000134
39.892100 0.000134
39.902000 0.000134
39.911900 0.000134
39.921800 0.000133
39.931700 0.000133
39.941600 0.000133
39.951500 0.000133
39.961400 0.000133
39.971300 0.000133
39.981200 0.000133
39.991100 0.000133
40.001000 0.000133
40.010900 0.000133
40.020800 0.000133
40.030700 0.000133
40.040600 0.000133
40.050500 0.000133
40.060400 0.000132
40.070300 0.000132
40.080200 0.000132
40.090100 0.000132
40.100000 0.000132
40.109900 0.000132
40.119800 0.000132
40.129700 0.000132
40.139600 0.000132
40.149500 0.000132
40.159400 0.000132
40.169300 0.000132
40.179200 0.000132
40.189100 0.000132
40.199000 0.000132
40.208900 0.000131
40.218800 0.000131
40.228700 0.000131
40.238600 0.000131
40.248500 0.000131
40.258400 0.000131
40.268300 0.000131
40.278200 0.000131
40.288100 0.000131
40.298000 0.000131
40.307900 0.000131
40.317800 0.000131
40.327700 0.000131
40.337600 0.000131
40.347500 0.000131
40.357400 0.000130
40.367300 0.000130
40.377200 0.000130
40.387100 0.000130
40.397000 0.000130
40.406900 0.000130
40.416800 0.000130
40.426700 0.000130
40.436600 0.000130
40.446500 0.000130
40.456400 0.000130
40.466300 0.000130
40.476200 0.000130
40.486100 0.000130
40.496000 0.000130
40.505900 0.000130
40.515800 0.000129
40.525700 0.000129
40.535600 0.000129
40.545500 0.000129
40.555400 0.000129
40.565300 0.000129
40.575200 0.000129
40.585100 0.000129
40.595000 0.000129
40.604900 0.000129
40.614800 0.000129
40.624700 0.000129
40.634600 0.000129
40.644500 0.000129
40.654400 0.000129
40.664300 0.000128
40.674200 0.000128
40.684100 0.000128
40.694000 0.000128
40.703900 0.000128
40.713800 0.000128
40.723700 0.000128
40.733600 0.000128
40.743500 0.000128
40.753400 0.000128
40.763300 0.000128
40.773200 0.000128
40.783100 0.000128
40.793000 0.000128
40.802900 0.000128
40.812800 0.000128
40.822700 0.000127
40.832600 0.000127
40.842500 0.000127
40.852400 0.000127
40.862300 0.000127
40.872200 0.000127
40.882100 0.000127
40.892000 0.000127
40.901900 0.000127
40.911800 0.000127
40.921700 0.000127
40.931600 0.000127
40.941500 0.000127
40.951400 0.000127
40.961300 0.000127
40.971200 0.000126
40.981100 0.000126
40.991000 0.000126
41.000900 0.000126
41.010800 0.000126
41.020700 0.000126
41.030600 0.000126
41.040500 0.000126
41.050400 0.000126
41.060300 0.000126
41.070200 0.000126
41.080100 0.000126
41.090000 0.000126
41.099900 0.000126
41.109800 0.000126
41.119700 0.000126
41.129600 0.000125
41.139500 0.000125
41.149400 0.000125
41.159300 0.000125
41.169200 0.000125
41.179100 0.000125
41.189000 0.000125
41.198900 0.000125
41.208800 0.000125
41.218700 0.000125
41.228600 0.000125
41.238500 0.000125
41.248400 0.000125
41.258300 0.000125
41.268200 0.000125
41.278100 0.000125
41.288000 0.000124
41.297900 0.000124
41.307800 0.000124
41.317700 0.000124
41.327600 0.000124
41.337500 0.000124
41.347400 0.000124
41.357300 0.000124
41.367200 0.000124
41.377100 0.000124
41.387000 0.000124
41.396900 0.000124
41.406800 0.000124
41.416700 0.000124
41.426600 0.000124
41.436500 0.000124
41.446400 0.000124
41.456300 0.000123
41.466200 0.000123
41.476100 0.000123
41.486000 0.000123
41.495900 0.000123
41.505800 0.000123
41.515700 0.000123
41.525600 0.000123
41.535500 0.000123
41.545400 0.000123
41.555300 0.000123
41.565200 0.000123
41.575100 0.000123
41.585000 0.000123
41.594900 0.000123
41.604800 0.000123
41.614700 0.000122
41.624600 0.000122
41.634500 0.000122
41.644400 0.000122
41.654300 0.000122
41.664200 0.000122
41.674100 0.000122
41.684000 0.000122
41.693900 0.000122
41.703800 0.000122
41.713700 0.000122
41.723600 0.000122
41.733500 0.000122
41.743400 0.000122
41.753300 0.000122
41.763200 0.000122
41.773100 0.000122
41.783000 0.000121
41.792900 0.000121
41.802800 0.000121
41.812700 0.000121
41.822600 0.000121
41.832500 0.000121
41.842400 0.000121
41.852300 0.000121
41.862200 0.000121
41.872100 0.000121
41.882000 0.000121
41.891900 0.000121
41.901800 0.000121
41.911700 0.000121
41.921600 0.000121
41.931500 0.000121
41.941400 0.000121
41.951300 0.000120
41.961200 0.000120
41.971100 0.000120
41.981000 0.000120
41.990900 0.000120
42.000800 0.000120
42.010700 0.000120
42.020600 0.000120
42.030500 0.000120
42.040400 0.000120
42.050300 0.000120
42.060200 0.000120
42.070100 0.000120
42.080000 0.000120
42.089900 0.000120
42.099800 0.000120
42.109700 0.000120
42.119600 0.000119
42.129500 0.000119
42.139400 0.000119
42.149300 0.000119
42.159200 0.000119
42.169100 0.000119
42.179000 0.000119
42.188900 0.000119
42.198800 0.000119
42.208700 0.000119
42.218600 0.000119
42.228500 0.000119
42.238400 0.000119
42.248300 0.000119
42.258200 0.000119
42.268100 0.000119
42.278000 0.000119
42.287900 0.000119
42.297800 0.000118
42.307700 0.000118
42.317600 0.000118
42.327500 0.000118
42.337400 0.000118
42.347300 0.000118
42.357200 0.000118
42.367100 0.000118
42.377000 0.000118
42.386900 0.000118
42.396800 0.000118
42.406700 0.000118
42.416600 0.000118
42.426500 0.000118
42.436400 0.000118
42.446300 0.000118
42.456200 0.000118
42.466100 0.000117
42.476000 0.000117
42.485900 0.000117
42.495800 0.000117
42.505700 0.000117
42.515600 0.000117
42.525500 0.000117
42.535400 0.000117
42.545300 0.000117
42.555200 0.000117
42.565100 0.000117
42.575000 0.000117
42.584900 0.000117
42.594800 0.000117
42.604700 0.000117
42.614600 0.000117
42.624500 0.000117
42.634400 0.000117
42.644300 0.000116
42.654200 0.000116
42.664100 0.000116
42.674000 0.000116
42.683900 0.000116
42.693800 0.000116
42.703700 0.000116
42.713600 0.000116
42.723500 0.000116
42.733400 0.000116
42.743300 0.000116
42.753200 0.000116
42.763100 0.000116
42.773000 0.000116
42.782900 0.000116
42.792800 0.000116
42.802700 0.000116
42.812600 0.000116
42.822500 0.000115
42.832400 0.000115
42.842300 0.000115
42.852200 0.000115
42.862100 0.000115
42.872000 0.000115
42.881900 0.000115
42.891800 0.000115
42.901700 0.000115
42.911600 0.000115
42.921500 0.000115
42.931400 0.000115
42.941300 0.000115
42.951200 0.000115
42.961100 0.000115
42.971000 0.000115
42.980900 0.000115
42.990800 0.000115
43.000700 0.000114
43.010600 0.000114
43.020500 0.000114
43.030400 0.000114
43.040300 0.000114
43.050200 0.000114
43.060100 0.000114
43.070000 0.000114
43.079900 0.000114
43.089800 0.000114
43.099700 0.000114
43.109600 0.000114
43.119500 0.000114
43.129400 0.000114
43.139300 0.000114
43.149200 0.000114
43.159100 0.000114
43.169000 0.000114
43.178900 0.000114
43.188800 0.000113
43.198700 0.000113
43.208600 0.000113
43.218500 0.000113
43.228400 0.000113
43.238300 0.000113
43.248200 0.000113
43.258100 0.000113
43.268000 0.000113
43.277900 0.000113
43.287800 0.000113
43.297700 0.000113
43.307600 0.000113
43.317500 0.000113
43.327400 0.000113
43.337300 0.000113
43.347200 0.000113
43.357100 0.000113
43.367000 0.000113
43.376900 0.000112
43.386800 0.000112
43.396700 0.000112
43.406600 0.000112
43.416500 0.000112
43.426400 0.000112
43.436300 0.000112
43.446200 0.000112
43.456100 0.000112
43.466000 0.000112
43.475900 0.000112
43.485800 0.000112
43.495700 0.000112
43.505600 0.000112
43.515500 0.000112
43.525400 0.000112
43.535300 0.000112
43.545200 0.000112
43.555100 0.000112
43.565000 0.000111
43.574900 0.000111
43.584800 0.000111
43.594700 0.000111
43.604600 0.000111
43.614500 0.000111
43.624400 0.000111
43.634300 0.000111
43.644200 0.000111
43.654100 0.000111
43.664000 0.000111
43.673900 0.000111
43.683800 0.000111
43.693700 0.000111
43.703600 0.000111
43.713500 0.000111
43.723400 0.000111
43.733300 0.000111
43.743200 0.000111
43.753100 0.000110
43.763000 0.000110
43.772900 0.000110
43.782800 0.000110
43.792700 0.000110
43.802600 0.000110
43.812500 0.000110
43.822400 0.000110
43.832300 0.000110
43.842200 0.000110
43.852100 0.000110
43.862000 0.000110
43.871900 0.000110
43.881800 0.000110
43.891700 0.000110
43.901600 0.000110
43.911500 0.000110
43.921400 0.000110
43.931300 0.000110
43.941200 0.000110
43.951100 0.000109
43.961000 0.000109
43.970900 0.000109
43.980800 0.000109
43.990700 0.000109
44.000600 0.000109
44.010500 0.000109
44.020400 0.000109
44.030300 0.000109
44.040200 0.000109
44.050100 0.000109
44.060000 0.000109
44.069900 0.000109
44.079800 0.000109
44.089700 0.000109
44.099600 0.000109
44.109500 0.000109
44.119400 0.000109
44.129300 0.000109
44.139200 0.000109
44.149100 0.000108
44.159000 0.000108
44.168900 0.000108
44.178800 0.000108
44.188700 0.000108
44.198600 0.000108
44.208500 0.000108
44.218400 0.000108
44.228300 0.000108
44.238200 0.000108
44.248100 0.000108
44.258000 0.000108
44.267900 0.000108
44.277800 0.000108
44.287700 0.000108
44.297600 0.000108
44.307500 0.000108
44.317400 0.000108
44.327300 0.000108
44.337200 0.000108
44.347100 0.000107
44.357000 0.000107
44.366900 0.000107
44.376800 0.000107
44.386700 0.000107
44.396600 0.000107
44.406500 0.000107
44.416400 0.000107
44.426300 0.000107
44.436200 0.000107
44.446100 0.000107
44.456000 0.000107
44.465900 0.000107
44.475800 0.000107
44.485700 0.000107
44.495600 0.000107
44.505500 0.000107
44.515400 0.000107
44.525300 0.000107
44.535200 0.000107
44.545100 0.000106
44.555000 0.000106
44.564900 0.000106
44.574800 0.000106
44.584700 0.000106
44.594600 0.000106
44.604500 0.000106
44.614400 0.000106
44.624300 0.000106
44.634200 0.000106
44.644100 0.000106
44.654000 0.000106
44.663900 0.000106
44.673800 0.000106
44.683700 0.000106
44.693600 0.000106
44.703500 0.000106
44.713400 0.000106
44.723300 0.000106
44.733200 0.000106
44.743100 0.000106
44.753000 0.000105
44.762900 0.000105
44.772800 0.000105
44.782700 0.000105
44.792600 0.000105
44.802500 0.000105
44.812400 0.000105
44.822300 0.000105
44.832200 0.000105
44.842100 0.000105
44.852000 0.000105
44.861900 0.000105
44.871800 0.000105
44.881700 0.000105
44.891600 0.000105
44.901500 0.000105
44.911400 0.000105
44.921300 0.000105
44.931200 0.000105
44.941100 0.000105
44.951000 0.000105
44.960900 0.000104
44.970800 0.000104
44.980700 0.000104
44.990600 0.000104
45.000500 0.000104
45.010400 0.000104
45.020300 0.000104
45.030200 0.000104
45.040100 0.000104
45.050000 0.000104
45.059900 0.000104
45.069800 0.000104
45.079700 0.000104
45.089600 0.000104
45.099500 0.000104
45.109400 0.000104
45.119300 0.000104
45.129200 0.000104
45.139100 0.000104
45.149000 0.000104
45.158900 0.000104
45.168800 0.000103
45.178700 0.000103
45.188600 0.000103
45.198500 0.000103
45.208400 0.000103
45.218300 0.000103
45.228200 0.000103
45.238100 0.000103
45.248000 0.000103
45.257900 0.000103
45.267800 0.000103
45.277700 0.000103
45.287600 0.000103
45.297500 0.000103
45.307400 0.000103
45.317300 0.000103
45.327200 0.000103
45.337100 0.000103
45.347000 0.000103
45.356900 0.000103
45.366800 0.000103
45.376700 0.000103
45.386600 0.000102
45.396500 0.000102
45.406400 0.000102
45.416300 0.000102
45.426200 0.000102
45.436100 0.000102
45.446000 0.000102
45.455900 0.000102
45.465800 0.000102
45.475700 0.000102
45.485600 0.000102
45.495500 0.000102
45.505400 0.000102
45.515300 0.000102
45.525200 0.000102
45.535100 0.000102
45.545000 0.000102
45.554900 0.000102
45.564800 0.000102
45.574700 0.000102
45.584600 0.000102
45.594500 0.000102
45.604400 0.000101
45.614300 0.000101
45.624200 0.000101
45.634100 0.000101
45.644000 0.000101
45.653900 0.000101
45.663800 0.000101
45.673700 0.000101
45.683600 0.000101
45.693500 0.000101
45.703400 0.000101
45.713300 0.000101
45.723200 0.000101
45.733100 0.000101
45.743000 0.000101
45.752900 0.000101
45.762800 0.000101
45.772700 0.000101
45.782600 0.000101
45.792500 0.000101
45.802400 0.000101
45.812300 0.000101
45.822200 0.000100
45.832100 0.000100
45.842000 0.000100
45.851900 0.000100
45.861800 0.000100
45.871700 0.000100
45.881600 0.000100
45.891500 0.000100
45.901400 0.000100
45.911300 0.000100
45.921200 0.000100
45.931100 0.000100
45.941000 0.000100
45.950900 0.000100
45.960800 0.000100
45.970700 0.000100
45.980600 0.000100
45.990500 0.000100
46.000400 0.000100
46.010300 0.000100
46.020200 0.000100
46.030100 0.000100
46.040000 0.000100
46.049900 0.000099
46.059800 0.000099
46.069700 0.000099
46.079600 0.000099
46.089500 0.000099
46.099400 0.000099
46.109300 0.000099
46.119200 0.000099
46.129100 0.000099
46.139000 0.000099
46.148900 0.000099
46.158800 0.000099
46.168700 0.000099
46.178600 0.000099
46.188500 0.000099
46.198400 0.000099
46.208300 0.000099
46.218200 0.000099
46.228100 0.000099
46.238000 0.000099
46.247900 0.000099
46.257800 0.000099
46.267700 0.000099
46.277600 0.000098
46.287500 0.000098
46.297400 0.000098
46.307300 0.000098
46.317200 0.000098
46.327100 0.000098
46.337000 0.000098
46.346900 0.000098
46.356800 0.000098
46.366700 0.000098
46.376600 0.000098
46.386500 0.000098
46.396400 0.000098
46.406300 0.000098
46.416200 0.000098
46.426100 0.000098
46.436000 0.000098
46.445900 0.000098
46.455800 0.000098
46.465700 0.000098
46.475600 0.000098
46.485500 0.000098
46.495400 0.000098
46.505300 0.000097
46.515200 0.000097
46.525100 0.000097
46.535000 0.000097
46.544900 0.000097
46.554800 0.000097
46.564700 0.000097
46.574600 0.000097
46.584500 0.000097
46.594400 0.000097
46.604300 0.000097
46.614200 0.000097
46.624100 0.000097
46.634000 0.000097
46.643900 0.000097
46.653800 0.000097
46.663700 0.000097
46.673600 0.000097
46.683500 0.000097
46.693400 0.000097
46.703300 0.000097
46.713200 0.000097
46.723100 0.000097
46.733000 0.000097
46.742900 0.000096
46.752800 0.000096
46.762700 0.000096
46.772600 0.000096
46.782500 0.000096
46.792400 0.000096
46.802300 0.000096
46.812200 0.000096
46.822100 0.000096
46.832000 0.000096
46.841900 0.000096
46.851800 0.000096
46.861700 0.000096
46.871600 0.000096
46.881500 0.000096
46.891400 0.000096
46.901300 0.000096
46.911200 0.000096
46.921100 0.000096
46.931000 0.000096
46.940900 0.000096
46.950800 0.000096
46.960700 0.000096
46.970600 0.000096
46.980500 0.000095
46.990400 0.000095
47.000300 0.000095
47.010200 0.000095
47.020100 0.000095
47.030000 0.000095
47.039900 0.000095
47.049800 0.000095
47.059700 0.000095
47.069600 0.000095
47.079500 0.000095
47.089400 0.000095
47.099300 0.000095
47.109200 0.000095
47.119100 0.000095
47.129000 0.000095
47.138900 0.000095
47.148800 0.000095
47.158700 0.000095
47.168600 0.000095
47.178500 0.000095
47.188400 0.000095
47.198300 0.000095
47.208200 0.000095
47.218100 0.000094
47.228000 0.000094
47.237900 0.000094
47.247800 0.000094
47.257700 0.000094
47.267600 0.000094
47.277500 0.000094
47.287400 0.000094
47.297300 0.000094
47.307200 0.000094
47.317100 0.000094
47.327000 0.000094
47.336900 0.000094
47.346800 0.000094
47.356700 0.000094
47.366600 0.000094
47.376500 0.000094
47.386400 0.000094
47.396300 0.000094
47.406200 0.000094
47.416100 0.000094
47.426000 0.000094
47.435900 0.000094
47.445800 0.000094
47.455700 0.000094
47.465600 0.000093
47.475500 0.000093
47.485400 0.000093
47.495300 0.000093
47.505200 0.000093
47.515100 0.000093
47.525000 0.000093
47.534900 0.000093
47.544800 0.000093
47.554700 0.000093
47.564600 0.000093
47.574500 0.000093
47.584400 0.000093
47.594300 0.000093
47.604200 0.000093
47.614100 0.000093
47.624000 0.000093
47.633900 0.000093
47.643800 0.000093
47.653700 0.000093
47.663600 0.000093
47.673500 0.000093
47.683400 0.000093
47.693300 0.000093
47.703200 0.000093
47.713100 0.000093
47.723000 0.000092
47.732900 0.000092
47.742800 0.000092
47.752700 0.000092
47.762600 0.000092
47.772500 0.000092
47.782400 0.000092
47.792300 0.000092
47.802200 0.000092
47.812100 0.000092
47.822000 0.000092
47.831900 0.000092
47.841800 0.000092
47.851700 0.000092
47.861600 0.000092
47.871500 0.000092
47.881400 0.000092
47.891300 0.000092
47.901200 0.000092
47.911100 0.000092
47.921000 0.000092
47.930900 0.000092
47.940800 0.000092
47.950700 0.000092
47.960600 0.000092
47.970500 0.000091
47.980400 0.000091
47.990300 0.000091
48.000200 0.000091
48.010100 0.000091
48.020000 0.000091
48.029900 0.000091
48.039800 0.000091
48.049700 0.000091
48.059600 0.000091
48.069500 0.000091
48.079400 0.000091
48.089300 0.000091
48.099200 0.000091
48.109100 0.000091
48.119000 0.000091
48.128900 0.000091
48.138800 0.000091
48.148700 0.000091
48.158600 0.000091
48.168500 0.000091
48.178400 0.000091
48.188300 0.000091
48.198200 0.000091
48.208100 0.000091
48.218000 0.000091
48.227900 0.000090
48.237800 0.000090
48.247700 0.000090
48.257600 0.000090
48.267500 0.000090
48.277400 0.000090
48.287300 0.000090
48.297200 0.000090
48.307100 0.000090
48.317000 0.000090
48.326900 0.000090
48.336800 0.000090
48.346700 0.000090
48.356600 0.000090
48.366500 0.000090
48.376400 0.000090
48.386300 0.000090
48.396200 0.000090
48.406100 0.000090
48.416000 0.000090
48.425900 0.000090
48.435800 0.000090
48.445700 0.000090
48.455600 0.000090
48.465500 0.000090
48.475400 0.000090
48.485300 0.000090
48.495200 0.000089
48.505100 0.000089
48.515000 0.000089
48.524900 0.000089
48.534800 0.000089
48.544700 0.000089
48.554600 0.000089
48.564500 0.000089
48.574400 0.000089
48.584300 0.000089
48.594200 0.000089
48.604100 0.000089
48.614000 0.000089
48.623900 0.000089
48.633800 0.000089
48.643700 0.000089
48.653600 0.000089
48.663500 0.000089
48.673400 0.000089
48.683300 0.000089
48.693200 0.000089
48.703100 0.000089
48.713000 0.000089
48.722900 0.000089
48.732800 0.000089
48.742700 0.000089
48.752600 0.000089
48.762500 0.000088
48.772400 0.000088
48.782300 0.000088
48.792200 0.000088
48.802100 0.000088
48.812000 0.000088
48.821900 0.000088
48.831800 0.000088
48.841700 0.000088
48.851600 0.000088
48.861500 0.000088
48.871400 0.000088
48.881300 0.000088
48.891200 0.000088
48.901100 0.000088
48.911000 0.000088
48.920900 0.000088
48.930800 0.000088
48.940700 0.000088
48.950600 0.000088
48.960500 0.000088
48.970400 0.000088
48.980300 0.000088
48.990200 0.000088
49.000100 0.000088
49.010000 0.000088
49.019900 0.000088
49.029800 0.000087
49.039700 0.000087
49.049600 0.000087
49.059500 0.000087
49.069400 0.000087
49.079300 0.000087
49.089200 0.000087
49.099100 0.000087
49.109000 0.000087
49.118900 0.000087
49.128800 0.000087
49.138700 0.000087
49.148600 0.000087
49.158500 0.000087
49.168400 0.000087
49.178300 0.000087
49.188200 0.000087
49.198100 0.000087
49.208000 0.000087
49.217900 0.000087
49.227800 0.000087
49.237700 0.000087
49.247600 0.000087
49.257500 0.000087
49.267400 0.000087
49.277300 0.000087
49.287200 0.000087
49.297100 0.000087
49.307000 0.000086
49.316900 0.000086
49.326800 0.000086
49.336700 0.000086
49.346600 0.000086
49.356500 0.000086
49.366400 0.000086
49.376300 0.000086
49.386200 0.000086
49.396100 0.000086
49.406000 0.000086
49.415900 0.000086
49.425800 0.000086
49.435700 0.000086
49.445600 0.000086
49.455500 0.000086
49.465400 0.000086
49.475300 0.000086
49.485200 0.000086
49.495100 0.000086
49.505000 0.000086
49.514900 0.000086
49.524800 0.000086
49.534700 0.000086
49.544600 0.000086
49.554500 0.000086
49.564400 0.000086
49.574300 0.000086
49.584200 0.000086
49.594100 0.000085
49.604000 0.000085
49.613900 0.000085
49.623800 0.000085
49.633700 0.000085
49.643600 0.000085
49.653500 0.000085
49.663400 0.000085
49.673300 0.000085
49.683200 0.000085
49.693100 0.000085
49.703000 0.000085
49.712900 0.000085
49.722800 0.000085
49.732700 0.000085
49.742600 0.000085
49.752500 0.000085
49.762400 0.000085
49.772300 0.000085
49.782200 0.000085
49.792100 0.000085
49.802000 0.000085
49.811900 0.000085
49.821800 0.000085
49.831700 0.000085
49.841600 0.000085
49.851500 0.000085
49.861400 0.000085
49.871300 0.000085
49.881200 0.000084
49.891100 0.000084
49.901000 0.000084
49.910900 0.000084
49.920800 0.000084
49.930700 0.000084
49.940600 0.000084
49.950500 0.000084
49.960400 0.000084
49.970300 0.000084
49.980200 0.000084
49.990100 0.000084
50.000000 0.000084
