# Random transverse-field Ising model
# L=22, J=1=gamma, W_J=0.2, W=4.0
# High-T dynamical energy conductivity sigma^E(omega); via MCLM
# omega/J sigma^E(omega)

0.000000 0.005413
0.000250 0.005414
0.000500 0.005430
0.000750 0.005498
0.001000 0.005659
0.001250 0.005927
0.001500 0.006257
0.001750 0.006549
0.002000 0.006715
0.002250 0.006771
0.002500 0.006833
0.002750 0.007000
0.003000 0.007284
0.003250 0.007608
0.003500 0.007888
0.003750 0.008106
0.004000 0.008334
0.004250 0.008690
0.004500 0.009216
0.004750 0.009787
0.005000 0.010148
0.005250 0.010154
0.005500 0.009944
0.005750 0.009791
0.006000 0.009848
0.006250 0.010069
0.006500 0.010292
0.006750 0.010402
0.007000 0.010432
0.007250 0.010520
0.007500 0.010787
0.007750 0.011195
0.008000 0.011547
0.008250 0.011670
0.008500 0.011580
0.008750 0.011415
0.009000 0.011358
0.009250 0.011532
0.009500 0.011889
0.009750 0.012240
0.010000 0.012434
0.010250 0.012479
0.010500 0.012513
0.010750 0.012719
0.011000 0.013151
0.011250 0.013649
0.011500 0.013991
0.011750 0.014129
0.012000 0.014219
0.012250 0.014496
0.012500 0.015073
0.012750 0.015772
0.013000 0.016224
0.013250 0.016229
0.013500 0.015906
0.013750 0.015513
0.014000 0.015247
0.014250 0.015094
0.014500 0.014902
0.014750 0.014622
0.015000 0.014302
0.015250 0.013992
0.015500 0.013796
0.015750 0.013809
0.016000 0.013984
0.016250 0.014207
0.016500 0.014404
0.016750 0.014527
0.017000 0.014617
0.017250 0.014861
0.017500 0.015405
0.017750 0.016176
0.018000 0.016950
0.018250 0.017590
0.018500 0.018233
0.018750 0.019215
0.019000 0.020772
0.019250 0.022760
0.019500 0.024584
0.019750 0.025608
0.020000 0.025755
0.020250 0.025386
0.020500 0.024675
0.020750 0.023565
0.021000 0.022248
0.021250 0.021128
0.021500 0.020394
0.021750 0.020017
0.022000 0.020023
0.022250 0.020477
0.022500 0.021232
0.022750 0.021921
0.023000 0.022277
0.023250 0.022370
0.023500 0.022529
0.023750 0.023029
0.024000 0.023795
0.024250 0.024507
0.024500 0.024961
0.024750 0.025174
0.025000 0.025405
0.025250 0.026087
0.025500 0.027438
0.025750 0.029154
0.026000 0.030556
0.026250 0.031097
0.026500 0.030770
0.026750 0.030142
0.027000 0.029846
0.027250 0.029956
0.027500 0.030000
0.027750 0.029503
0.028000 0.028488
0.028250 0.027517
0.028500 0.027206
0.028750 0.027773
0.029000 0.028947
0.029250 0.030203
0.029500 0.031190
0.029750 0.031957
0.030000 0.032731
0.030250 0.033424
0.030500 0.033578
0.030750 0.033098
0.031000 0.032479
0.031250 0.032160
0.031500 0.032311
0.031750 0.033102
0.032000 0.034663
0.032250 0.036995
0.032500 0.039950
0.032750 0.042903
0.033000 0.044823
0.033250 0.045351
0.033500 0.045127
0.033750 0.044571
0.034000 0.043413
0.034250 0.041662
0.034500 0.040146
0.034750 0.039868
0.035000 0.041335
0.035250 0.044356
0.035500 0.047925
0.035750 0.050473
0.036000 0.051055
0.036250 0.050335
0.036500 0.049649
0.036750 0.049375
0.037000 0.048767
0.037250 0.047058
0.037500 0.044386
0.037750 0.041755
0.038000 0.040212
0.038250 0.040130
0.038500 0.041047
0.038750 0.041965
0.039000 0.042176
0.039250 0.041803
0.039500 0.041349
0.039750 0.041063
0.040000 0.040693
0.040250 0.039932
0.040500 0.038921
0.040750 0.037976
0.041000 0.037310
0.041250 0.036878
0.041500 0.036200
0.041750 0.034919
0.042000 0.033413
0.042250 0.032292
0.042500 0.031724
0.042750 0.031602
0.043000 0.031950
0.043250 0.032770
0.043500 0.033716
0.043750 0.034275
0.044000 0.034228
0.044250 0.033955
0.044500 0.034155
0.044750 0.035161
0.045000 0.036672
0.045250 0.038049
0.045500 0.038773
0.045750 0.038874
0.046000 0.039000
0.046250 0.039654
0.046500 0.040518
0.046750 0.040792
0.047000 0.039968
0.047250 0.038167
0.047500 0.036115
0.047750 0.034596
0.048000 0.033786
0.048250 0.033278
0.048500 0.032623
0.048750 0.031661
0.049000 0.030591
0.049250 0.029906
0.049500 0.029957
0.049750 0.030594
0.050000 0.031260
0.050250 0.031493
0.050500 0.031275
0.050750 0.030968
0.051000 0.031085
0.051250 0.031864
0.051500 0.032965
0.051750 0.033725
0.052000 0.033832
0.052250 0.033664
0.052500 0.033842
0.052750 0.034493
0.053000 0.035127
0.053250 0.035285
0.053500 0.034980
0.053750 0.034407
0.054000 0.033840
0.054250 0.033604
0.054500 0.033663
0.054750 0.033608
0.055000 0.033225
0.055250 0.032712
0.055500 0.032472
0.055750 0.032868
0.056000 0.033905
0.056250 0.035206
0.056500 0.036476
0.056750 0.037730
0.057000 0.038910
0.057250 0.039927
0.057500 0.041057
0.057750 0.042540
0.058000 0.044066
0.058250 0.045217
0.058500 0.046006
0.058750 0.046659
0.059000 0.047379
0.059250 0.048157
0.059500 0.048789
0.059750 0.049449
0.060000 0.050586
0.060250 0.052329
0.060500 0.054594
0.060750 0.057143
0.061000 0.059209
0.061250 0.060177
0.061500 0.060645
0.061750 0.061631
0.062000 0.063382
0.062250 0.065700
0.062500 0.068531
0.062750 0.071745
0.063000 0.074692
0.063250 0.076004
0.063500 0.074858
0.063750 0.072498
0.064000 0.070849
0.064250 0.070371
0.064500 0.070013
0.064750 0.068739
0.065000 0.066806
0.065250 0.065494
0.065500 0.065666
0.065750 0.066941
0.066000 0.068159
0.066250 0.068059
0.066500 0.065834
0.066750 0.062078
0.067000 0.058329
0.067250 0.055411
0.067500 0.053089
0.067750 0.050870
0.068000 0.048529
0.068250 0.046374
0.068500 0.045111
0.068750 0.045200
0.069000 0.046541
0.069250 0.048719
0.069500 0.051226
0.069750 0.053325
0.070000 0.054452
0.070250 0.054921
0.070500 0.055317
0.070750 0.055652
0.071000 0.055598
0.071250 0.054989
0.071500 0.054319
0.071750 0.054551
0.072000 0.056039
0.072250 0.057924
0.072500 0.058768
0.072750 0.057822
0.073000 0.055568
0.073250 0.053261
0.073500 0.051839
0.073750 0.051141
0.074000 0.050339
0.074250 0.048979
0.074500 0.047182
0.074750 0.045312
0.075000 0.043904
0.075250 0.043245
0.075500 0.043069
0.075750 0.042971
0.076000 0.042828
0.076250 0.042817
0.076500 0.043454
0.076750 0.045352
0.077000 0.048663
0.077250 0.052733
0.077500 0.056388
0.077750 0.058911
0.078000 0.060499
0.078250 0.061851
0.078500 0.063830
0.078750 0.066656
0.079000 0.069222
0.079250 0.069884
0.079500 0.068081
0.079750 0.064598
0.080000 0.060281
0.080250 0.055726
0.080500 0.051758
0.080750 0.048941
0.081000 0.047121
0.081250 0.045955
0.081500 0.045538
0.081750 0.046088
0.082000 0.047374
0.082250 0.048802
0.082500 0.049791
0.082750 0.050080
0.083000 0.050151
0.083250 0.050904
0.083500 0.052678
0.083750 0.054899
0.084000 0.056482
0.084250 0.056566
0.084500 0.055499
0.084750 0.054735
0.085000 0.055455
0.085250 0.057724
0.085500 0.060659
0.085750 0.063181
0.086000 0.064705
0.086250 0.065525
0.086500 0.066761
0.086750 0.069240
0.087000 0.072591
0.087250 0.075729
0.087500 0.077790
0.087750 0.078658
0.088000 0.078646
0.088250 0.077442
0.088500 0.074574
0.088750 0.070591
0.089000 0.066480
0.089250 0.063079
0.089500 0.061144
0.089750 0.060784
0.090000 0.061036
0.090250 0.060621
0.090500 0.059221
0.090750 0.057593
0.091000 0.056695
0.091250 0.056829
0.091500 0.057470
0.091750 0.058051
0.092000 0.058446
0.092250 0.058346
0.092500 0.057404
0.092750 0.056118
0.093000 0.055266
0.093250 0.054813
0.093500 0.054053
0.093750 0.052400
0.094000 0.050081
0.094250 0.048084
0.094500 0.047193
0.094750 0.047344
0.095000 0.047892
0.095250 0.048256
0.095500 0.048209
0.095750 0.048007
0.096000 0.048287
0.096250 0.049278
0.096500 0.050375
0.096750 0.050808
0.097000 0.050505
0.097250 0.050082
0.097500 0.050371
0.097750 0.051757
0.098000 0.053719
0.098250 0.055309
0.098500 0.056133
0.098750 0.056555
0.099000 0.057389
0.099250 0.059515
0.099500 0.063043
0.099750 0.066809
0.100000 0.069168
0.100250 0.069488
0.100500 0.068428
0.100750 0.067018
0.101000 0.065723
0.101250 0.064328
0.101500 0.062185
0.101750 0.058622
0.102000 0.054012
0.102250 0.049658
0.102500 0.046437
0.102750 0.044289
0.103000 0.042756
0.103250 0.041544
0.103500 0.040588
0.103750 0.040077
0.104000 0.040304
0.104250 0.041223
0.104500 0.042416
0.104750 0.043597
0.105000 0.044709
0.105250 0.045507
0.105500 0.045855
0.105750 0.046208
0.106000 0.047011
0.106250 0.048029
0.106500 0.048731
0.106750 0.049186
0.107000 0.050261
0.107250 0.052803
0.107500 0.056775
0.107750 0.060913
0.108000 0.063327
0.108250 0.063159
0.108500 0.061383
0.108750 0.059827
0.109000 0.059839
0.109250 0.061538
0.109500 0.063814
0.109750 0.065288
0.110000 0.065748
0.110250 0.066257
0.110500 0.067976
0.110750 0.071029
0.111000 0.074216
0.111250 0.076332
0.111500 0.077873
0.111750 0.080175
0.112000 0.083257
0.112250 0.085645
0.112500 0.086217
0.112750 0.085137
0.113000 0.082788
0.113250 0.079165
0.113500 0.074838
0.113750 0.071168
0.114000 0.068919
0.114250 0.067719
0.114500 0.066762
0.114750 0.065388
0.115000 0.063605
0.115250 0.062365
0.115500 0.062599
0.115750 0.064106
0.116000 0.065528
0.116250 0.065581
0.116500 0.064428
0.116750 0.063240
0.117000 0.062613
0.117250 0.062227
0.117500 0.061987
0.117750 0.062494
0.118000 0.064031
0.118250 0.066004
0.118500 0.067795
0.118750 0.069470
0.119000 0.070996
0.119250 0.071786
0.119500 0.071527
0.119750 0.070928
0.120000 0.071120
0.120250 0.072239
0.120500 0.073192
0.120750 0.073155
0.121000 0.072506
0.121250 0.071815
0.121500 0.071400
0.121750 0.071827
0.122000 0.073385
0.122250 0.075424
0.122500 0.077001
0.122750 0.077599
0.123000 0.077120
0.123250 0.076328
0.123500 0.076652
0.123750 0.078883
0.124000 0.082725
0.124250 0.087449
0.124500 0.092239
0.124750 0.096218
0.125000 0.099134
0.125250 0.101254
0.125500 0.102818
0.125750 0.104251
0.126000 0.105863
0.126250 0.108225
0.126500 0.112902
0.126750 0.121031
0.127000 0.131022
0.127250 0.137930
0.127500 0.136766
0.127750 0.127825
0.128000 0.116224
0.128250 0.106513
0.128500 0.100129
0.128750 0.096489
0.129000 0.094687
0.129250 0.094099
0.129500 0.094746
0.129750 0.097720
0.130000 0.104375
0.130250 0.114904
0.130500 0.127184
0.130750 0.136674
0.131000 0.139487
0.131250 0.136492
0.131500 0.131846
0.131750 0.127939
0.132000 0.123994
0.132250 0.118702
0.132500 0.112483
0.132750 0.107325
0.133000 0.105078
0.133250 0.105919
0.133500 0.108267
0.133750 0.110082
0.134000 0.110196
0.134250 0.108833
0.134500 0.107770
0.134750 0.108947
0.135000 0.112496
0.135250 0.116567
0.135500 0.119115
0.135750 0.119756
0.136000 0.120046
0.136250 0.121901
0.136500 0.125373
0.136750 0.128753
0.137000 0.131084
0.137250 0.132652
0.137500 0.132997
0.137750 0.131487
0.138000 0.129087
0.138250 0.127521
0.138500 0.128060
0.138750 0.130895
0.139000 0.135342
0.139250 0.141079
0.139500 0.147418
0.139750 0.151221
0.140000 0.147930
0.140250 0.136290
0.140500 0.120492
0.140750 0.105892
0.141000 0.095192
0.141250 0.088482
0.141500 0.084480
0.141750 0.081679
0.142000 0.079248
0.142250 0.077419
0.142500 0.077125
0.142750 0.078889
0.143000 0.082005
0.143250 0.084851
0.143500 0.086148
0.143750 0.085786
0.144000 0.084855
0.144250 0.084911
0.144500 0.086342
0.144750 0.087655
0.145000 0.086930
0.145250 0.083994
0.145500 0.080573
0.145750 0.078558
0.146000 0.078503
0.146250 0.079479
0.146500 0.080225
0.146750 0.080226
0.147000 0.079521
0.147250 0.078513
0.147500 0.077709
0.147750 0.077066
0.148000 0.076494
0.148250 0.076416
0.148500 0.077152
0.148750 0.078927
0.149000 0.082410
0.149250 0.087887
0.149500 0.093838
0.149750 0.097097
0.150000 0.095739
0.150250 0.091480
0.150500 0.087756
0.150750 0.086657
0.151000 0.088100
0.151250 0.090685
0.151500 0.093145
0.151750 0.094802
0.152000 0.095215
0.152250 0.094395
0.152500 0.092389
0.152750 0.089137
0.153000 0.085108
0.153250 0.080805
0.153500 0.076670
0.153750 0.073627
0.154000 0.072287
0.154250 0.071914
0.154500 0.070833
0.154750 0.068150
0.155000 0.064771
0.155250 0.062320
0.155500 0.061630
0.155750 0.062269
0.156000 0.063069
0.156250 0.063258
0.156500 0.062962
0.156750 0.062767
0.157000 0.063304
0.157250 0.064564
0.157500 0.065488
0.157750 0.064880
0.158000 0.062541
0.158250 0.059373
0.158500 0.056680
0.158750 0.055142
0.159000 0.054474
0.159250 0.054145
0.159500 0.054112
0.159750 0.054511
0.160000 0.055343
0.160250 0.056771
0.160500 0.058832
0.160750 0.060842
0.161000 0.061959
0.161250 0.062147
0.161500 0.061898
0.161750 0.061771
0.162000 0.062212
0.162250 0.063006
0.162500 0.063402
0.162750 0.062845
0.163000 0.061379
0.163250 0.059846
0.163500 0.059305
0.163750 0.060001
0.164000 0.061203
0.164250 0.061984
0.164500 0.061968
0.164750 0.061647
0.165000 0.062207
0.165250 0.064676
0.165500 0.069261
0.165750 0.075425
0.166000 0.082357
0.166250 0.088862
0.166500 0.093122
0.166750 0.094321
0.167000 0.093725
0.167250 0.092796
0.167500 0.091787
0.167750 0.089995
0.168000 0.086767
0.168250 0.082947
0.168500 0.080196
0.168750 0.078894
0.169000 0.077617
0.169250 0.074889
0.169500 0.071225
0.169750 0.068503
0.170000 0.068061
0.170250 0.069982
0.170500 0.073143
0.170750 0.075686
0.171000 0.076230
0.171250 0.075071
0.171500 0.073937
0.171750 0.074211
0.172000 0.075681
0.172250 0.076966
0.172500 0.077140
0.172750 0.076603
0.173000 0.076569
0.173250 0.078446
0.173500 0.083094
0.173750 0.090097
0.174000 0.097626
0.174250 0.103623
0.174500 0.107795
0.174750 0.111740
0.175000 0.116459
0.175250 0.120373
0.175500 0.120550
0.175750 0.115742
0.176000 0.107970
0.176250 0.100784
0.176500 0.096139
0.176750 0.093407
0.177000 0.090798
0.177250 0.087462
0.177500 0.083947
0.177750 0.081351
0.178000 0.080342
0.178250 0.080305
0.178500 0.079774
0.178750 0.077983
0.179000 0.075230
0.179250 0.072230
0.179500 0.069897
0.179750 0.068728
0.180000 0.068350
0.180250 0.068199
0.180500 0.068082
0.180750 0.067950
0.181000 0.068009
0.181250 0.068558
0.181500 0.069207
0.181750 0.069201
0.182000 0.068460
0.182250 0.067429
0.182500 0.066669
0.182750 0.066910
0.183000 0.068575
0.183250 0.071546
0.183500 0.075792
0.183750 0.081435
0.184000 0.087653
0.184250 0.092488
0.184500 0.094872
0.184750 0.095738
0.185000 0.095823
0.185250 0.094217
0.185500 0.090096
0.185750 0.084648
0.186000 0.080147
0.186250 0.077923
0.186500 0.077920
0.186750 0.079497
0.187000 0.081999
0.187250 0.084471
0.187500 0.086112
0.187750 0.087369
0.188000 0.089230
0.188250 0.091792
0.188500 0.094186
0.188750 0.095311
0.189000 0.095287
0.189250 0.096029
0.189500 0.099570
0.189750 0.106555
0.190000 0.116100
0.190250 0.126612
0.190500 0.137300
0.190750 0.149245
0.191000 0.163668
0.191250 0.178008
0.191500 0.185134
0.191750 0.179501
0.192000 0.163509
0.192250 0.144453
0.192500 0.128084
0.192750 0.116361
0.193000 0.108608
0.193250 0.103602
0.193500 0.100666
0.193750 0.099292
0.194000 0.099219
0.194250 0.100783
0.194500 0.104002
0.194750 0.107904
0.195000 0.111137
0.195250 0.112686
0.195500 0.112879
0.195750 0.113431
0.196000 0.115093
0.196250 0.116278
0.196500 0.114704
0.196750 0.109844
0.197000 0.103598
0.197250 0.098656
0.197500 0.096337
0.197750 0.096193
0.198000 0.097260
0.198250 0.099135
0.198500 0.101436
0.198750 0.103633
0.199000 0.106390
0.199250 0.111370
0.199500 0.119203
0.199750 0.128333
0.200000 0.135487
0.200250 0.136639
0.200500 0.134788
0.200750 0.132842
0.201000 0.131371
0.201250 0.129285
0.201500 0.125880
0.201750 0.121706
0.202000 0.117873
0.202250 0.115024
0.202500 0.113030
0.202750 0.111390
0.203000 0.109776
0.203250 0.108232
0.203500 0.106993
0.203750 0.106201
0.204000 0.105794
0.204250 0.105590
0.204500 0.105445
0.204750 0.105346
0.205000 0.105369
0.205250 0.105595
0.205500 0.106030
0.205750 0.106608
0.206000 0.107239
0.206250 0.107868
0.206500 0.108489
0.206750 0.109126
0.207000 0.109800
0.207250 0.110519
0.207500 0.111279
0.207750 0.112080
0.208000 0.112929
0.208250 0.113839
0.208500 0.114813
0.208750 0.115848
0.209000 0.116929
0.209250 0.118043
0.209500 0.119186
0.209750 0.120358
0.210000 0.121566
0.210250 0.122812
0.210500 0.124097
0.210750 0.125420
0.211000 0.126785
0.211250 0.128195
0.211500 0.129653
0.211750 0.131156
0.212000 0.132697
0.212250 0.134266
0.212500 0.135852
0.212750 0.137447
0.213000 0.139049
0.213250 0.140661
0.213500 0.142290
0.213750 0.143946
0.214000 0.145640
0.214250 0.147381
0.214500 0.149174
0.214750 0.151013
0.215000 0.152886
0.215250 0.154768
0.215500 0.156625
0.215750 0.158418
0.216000 0.160105
0.216250 0.161646
0.216500 0.163009
0.216750 0.164169
0.217000 0.165113
0.217250 0.165838
0.217500 0.166353
0.217750 0.166675
0.218000 0.166824
0.218250 0.166825
0.218500 0.166698
0.218750 0.166460
0.219000 0.166122
0.219250 0.165689
0.219500 0.165162
0.219750 0.164539
0.220000 0.163813
0.220250 0.162983
0.220500 0.162047
0.220750 0.161010
0.221000 0.159881
0.221250 0.158673
0.221500 0.157406
0.221750 0.156101
0.222000 0.154782
0.222250 0.153471
0.222500 0.152192
0.222750 0.150966
0.223000 0.149808
0.223250 0.148735
0.223500 0.147756
0.223750 0.146878
0.224000 0.146105
0.224250 0.145440
0.224500 0.144880
0.224750 0.144422
0.225000 0.144064
0.225250 0.143799
0.225500 0.143621
0.225750 0.143525
0.226000 0.143505
0.226250 0.143553
0.226500 0.143664
0.226750 0.143831
0.227000 0.144048
0.227250 0.144310
0.227500 0.144609
0.227750 0.144937
0.228000 0.145289
0.228250 0.145656
0.228500 0.146029
0.228750 0.146399
0.229000 0.146757
0.229250 0.147093
0.229500 0.147398
0.229750 0.147662
0.230000 0.147878
0.230250 0.148037
0.230500 0.148136
0.230750 0.148169
0.231000 0.148134
0.231250 0.148033
0.231500 0.147865
0.231750 0.147636
0.232000 0.147349
0.232250 0.147012
0.232500 0.146632
0.232750 0.146216
0.233000 0.145773
0.233250 0.145311
0.233500 0.144837
0.233750 0.144360
0.234000 0.143886
0.234250 0.143422
0.234500 0.142972
0.234750 0.142543
0.235000 0.142138
0.235250 0.141759
0.235500 0.141411
0.235750 0.141095
0.236000 0.140811
0.236250 0.140561
0.236500 0.140345
0.236750 0.140163
0.237000 0.140013
0.237250 0.139895
0.237500 0.139808
0.237750 0.139748
0.238000 0.139716
0.238250 0.139708
0.238500 0.139724
0.238750 0.139759
0.239000 0.139814
0.239250 0.139886
0.239500 0.139972
0.239750 0.140073
0.240000 0.140186
0.240250 0.140311
0.240500 0.140447
0.240750 0.140594
0.241000 0.140751
0.241250 0.140918
0.241500 0.141097
0.241750 0.141287
0.242000 0.141489
0.242250 0.141704
0.242500 0.141933
0.242750 0.142177
0.243000 0.142436
0.243250 0.142710
0.243500 0.143001
0.243750 0.143309
0.244000 0.143633
0.244250 0.143975
0.244500 0.144332
0.244750 0.144706
0.245000 0.145094
0.245250 0.145496
0.245500 0.145911
0.245750 0.146337
0.246000 0.146773
0.246250 0.147218
0.246500 0.147668
0.246750 0.148123
0.247000 0.148581
0.247250 0.149040
0.247500 0.149498
0.247750 0.149954
0.248000 0.150405
0.248250 0.150851
0.248500 0.151290
0.248750 0.151721
0.249000 0.152144
0.249250 0.152557
0.249500 0.152960
0.249750 0.153352
0.250000 0.153734
0.250250 0.154105
0.250500 0.154466
0.250750 0.154816
0.251000 0.155157
0.251250 0.155488
0.251500 0.155810
0.251750 0.156124
0.252000 0.156430
0.252250 0.156729
0.252500 0.157022
0.252750 0.157309
0.253000 0.157591
0.253250 0.157869
0.253500 0.158142
0.253750 0.158413
0.254000 0.158680
0.254250 0.158945
0.254500 0.159208
0.254750 0.159470
0.255000 0.159730
0.255250 0.159989
0.255500 0.160247
0.255750 0.160504
0.256000 0.160761
0.256250 0.161018
0.256500 0.161274
0.256750 0.161531
0.257000 0.161787
0.257250 0.162044
0.257500 0.162301
0.257750 0.162558
0.258000 0.162816
0.258250 0.163074
0.258500 0.163333
0.258750 0.163593
0.259000 0.163853
0.259250 0.164114
0.259500 0.164376
0.259750 0.164639
0.260000 0.164903
0.260250 0.165167
0.260500 0.165433
0.260750 0.165699
0.261000 0.165966
0.261250 0.166233
0.261500 0.166501
0.261750 0.166769
0.262000 0.167037
0.262250 0.167304
0.262500 0.167572
0.262750 0.167838
0.263000 0.168103
0.263250 0.168367
0.263500 0.168629
0.263750 0.168888
0.264000 0.169146
0.264250 0.169400
0.264500 0.169651
0.264750 0.169899
0.265000 0.170142
0.265250 0.170381
0.265500 0.170616
0.265750 0.170846
0.266000 0.171071
0.266250 0.171290
0.266500 0.171504
0.266750 0.171712
0.267000 0.171914
0.267250 0.172110
0.267500 0.172300
0.267750 0.172484
0.268000 0.172662
0.268250 0.172834
0.268500 0.173000
0.268750 0.173159
0.269000 0.173313
0.269250 0.173462
0.269500 0.173605
0.269750 0.173742
0.270000 0.173875
0.270250 0.174002
0.270500 0.174125
0.270750 0.174244
0.271000 0.174359
0.271250 0.174471
0.271500 0.174579
0.271750 0.174684
0.272000 0.174786
0.272250 0.174886
0.272500 0.174984
0.272750 0.175080
0.273000 0.175176
0.273250 0.175270
0.273500 0.175363
0.273750 0.175456
0.274000 0.175550
0.274250 0.175643
0.274500 0.175738
0.274750 0.175833
0.275000 0.175929
0.275250 0.176027
0.275500 0.176126
0.275750 0.176227
0.276000 0.176331
0.276250 0.176437
0.276500 0.176545
0.276750 0.176656
0.277000 0.176770
0.277250 0.176886
0.277500 0.177006
0.277750 0.177129
0.278000 0.177255
0.278250 0.177384
0.278500 0.177517
0.278750 0.177652
0.279000 0.177791
0.279250 0.177933
0.279500 0.178078
0.279750 0.178226
0.280000 0.178377
0.280250 0.178531
0.280500 0.178688
0.280750 0.178847
0.281000 0.179009
0.281250 0.179174
0.281500 0.179340
0.281750 0.179509
0.282000 0.179680
0.282250 0.179852
0.282500 0.180027
0.282750 0.180203
0.283000 0.180380
0.283250 0.180559
0.283500 0.180738
0.283750 0.180919
0.284000 0.181101
0.284250 0.181284
0.284500 0.181467
0.284750 0.181652
0.285000 0.181836
0.285250 0.182022
0.285500 0.182207
0.285750 0.182394
0.286000 0.182580
0.286250 0.182767
0.286500 0.182955
0.286750 0.183143
0.287000 0.183331
0.287250 0.183519
0.287500 0.183708
0.287750 0.183898
0.288000 0.184088
0.288250 0.184278
0.288500 0.184470
0.288750 0.184661
0.289000 0.184854
0.289250 0.185047
0.289500 0.185241
0.289750 0.185436
0.290000 0.185633
0.290250 0.185830
0.290500 0.186028
0.290750 0.186227
0.291000 0.186427
0.291250 0.186629
0.291500 0.186832
0.291750 0.187036
0.292000 0.187242
0.292250 0.187448
0.292500 0.187657
0.292750 0.187866
0.293000 0.188076
0.293250 0.188288
0.293500 0.188501
0.293750 0.188715
0.294000 0.188930
0.294250 0.189146
0.294500 0.189362
0.294750 0.189580
0.295000 0.189797
0.295250 0.190015
0.295500 0.190233
0.295750 0.190451
0.296000 0.190668
0.296250 0.190885
0.296500 0.191101
0.296750 0.191317
0.297000 0.191530
0.297250 0.191742
0.297500 0.191952
0.297750 0.192160
0.298000 0.192366
0.298250 0.192568
0.298500 0.192768
0.298750 0.192964
0.299000 0.193156
0.299250 0.193344
0.299500 0.193528
0.299750 0.193707
0.300000 0.193881
0.300250 0.194049
0.300500 0.194212
0.300750 0.194370
0.301000 0.194521
0.301250 0.194665
0.301500 0.194803
0.301750 0.194934
0.302000 0.195059
0.302250 0.195176
0.302500 0.195285
0.302750 0.195387
0.303000 0.195482
0.303250 0.195569
0.303500 0.195649
0.303750 0.195720
0.304000 0.195784
0.304250 0.195840
0.304500 0.195889
0.304750 0.195930
0.305000 0.195964
0.305250 0.195990
0.305500 0.196009
0.305750 0.196021
0.306000 0.196026
0.306250 0.196025
0.306500 0.196017
0.306750 0.196003
0.307000 0.195983
0.307250 0.195958
0.307500 0.195928
0.307750 0.195892
0.308000 0.195852
0.308250 0.195808
0.308500 0.195760
0.308750 0.195709
0.309000 0.195655
0.309250 0.195598
0.309500 0.195538
0.309750 0.195477
0.310000 0.195415
0.310250 0.195351
0.310500 0.195287
0.310750 0.195222
0.311000 0.195157
0.311250 0.195093
0.311500 0.195030
0.311750 0.194968
0.312000 0.194908
0.312250 0.194850
0.312500 0.194794
0.312750 0.194741
0.313000 0.194691
0.313250 0.194644
0.313500 0.194601
0.313750 0.194562
0.314000 0.194527
0.314250 0.194497
0.314500 0.194471
0.314750 0.194451
0.315000 0.194435
0.315250 0.194425
0.315500 0.194421
0.315750 0.194423
0.316000 0.194430
0.316250 0.194444
0.316500 0.194464
0.316750 0.194491
0.317000 0.194524
0.317250 0.194564
0.317500 0.194610
0.317750 0.194663
0.318000 0.194723
0.318250 0.194790
0.318500 0.194864
0.318750 0.194945
0.319000 0.195033
0.319250 0.195127
0.319500 0.195229
0.319750 0.195337
0.320000 0.195452
0.320250 0.195574
0.320500 0.195703
0.320750 0.195839
0.321000 0.195981
0.321250 0.196129
0.321500 0.196284
0.321750 0.196445
0.322000 0.196613
0.322250 0.196786
0.322500 0.196965
0.322750 0.197150
0.323000 0.197341
0.323250 0.197537
0.323500 0.197739
0.323750 0.197946
0.324000 0.198158
0.324250 0.198375
0.324500 0.198596
0.324750 0.198822
0.325000 0.199053
0.325250 0.199287
0.325500 0.199526
0.325750 0.199769
0.326000 0.200015
0.326250 0.200265
0.326500 0.200518
0.326750 0.200775
0.327000 0.201034
0.327250 0.201297
0.327500 0.201561
0.327750 0.201829
0.328000 0.202099
0.328250 0.202370
0.328500 0.202644
0.328750 0.202920
0.329000 0.203197
0.329250 0.203476
0.329500 0.203756
0.329750 0.204037
0.330000 0.204319
0.330250 0.204602
0.330500 0.204885
0.330750 0.205169
0.331000 0.205453
0.331250 0.205738
0.331500 0.206022
0.331750 0.206306
0.332000 0.206591
0.332250 0.206874
0.332500 0.207157
0.332750 0.207439
0.333000 0.207721
0.333250 0.208001
0.333500 0.208280
0.333750 0.208558
0.334000 0.208835
0.334250 0.209110
0.334500 0.209383
0.334750 0.209654
0.335000 0.209923
0.335250 0.210190
0.335500 0.210454
0.335750 0.210717
0.336000 0.210976
0.336250 0.211233
0.336500 0.211486
0.336750 0.211737
0.337000 0.211985
0.337250 0.212229
0.337500 0.212469
0.337750 0.212706
0.338000 0.212939
0.338250 0.213168
0.338500 0.213393
0.338750 0.213614
0.339000 0.213830
0.339250 0.214042
0.339500 0.214249
0.339750 0.214452
0.340000 0.214649
0.340250 0.214841
0.340500 0.215028
0.340750 0.215209
0.341000 0.215385
0.341250 0.215556
0.341500 0.215720
0.341750 0.215879
0.342000 0.216032
0.342250 0.216178
0.342500 0.216318
0.342750 0.216452
0.343000 0.216580
0.343250 0.216701
0.343500 0.216816
0.343750 0.216923
0.344000 0.217025
0.344250 0.217119
0.344500 0.217206
0.344750 0.217287
0.345000 0.217361
0.345250 0.217427
0.345500 0.217487
0.345750 0.217540
0.346000 0.217586
0.346250 0.217625
0.346500 0.217657
0.346750 0.217681
0.347000 0.217699
0.347250 0.217711
0.347500 0.217715
0.347750 0.217713
0.348000 0.217703
0.348250 0.217688
0.348500 0.217665
0.348750 0.217637
0.349000 0.217602
0.349250 0.217560
0.349500 0.217513
0.349750 0.217459
0.350000 0.217400
0.350250 0.217335
0.350500 0.217265
0.350750 0.217188
0.351000 0.217107
0.351250 0.217020
0.351500 0.216929
0.351750 0.216833
0.352000 0.216731
0.352250 0.216626
0.352500 0.216516
0.352750 0.216402
0.353000 0.216284
0.353250 0.216163
0.353500 0.216037
0.353750 0.215909
0.354000 0.215777
0.354250 0.215642
0.354500 0.215504
0.354750 0.215363
0.355000 0.215220
0.355250 0.215075
0.355500 0.214927
0.355750 0.214778
0.356000 0.214626
0.356250 0.214473
0.356500 0.214319
0.356750 0.214163
0.357000 0.214006
0.357250 0.213848
0.357500 0.213690
0.357750 0.213530
0.358000 0.213370
0.358250 0.213210
0.358500 0.213050
0.358750 0.212889
0.359000 0.212728
0.359250 0.212568
0.359500 0.212407
0.359750 0.212247
0.360000 0.212088
0.360250 0.211929
0.360500 0.211771
0.360750 0.211613
0.361000 0.211456
0.361250 0.211301
0.361500 0.211146
0.361750 0.210992
0.362000 0.210840
0.362250 0.210689
0.362500 0.210539
0.362750 0.210390
0.363000 0.210243
0.363250 0.210098
0.363500 0.209953
0.363750 0.209811
0.364000 0.209670
0.364250 0.209530
0.364500 0.209393
0.364750 0.209256
0.365000 0.209122
0.365250 0.208989
0.365500 0.208858
0.365750 0.208729
0.366000 0.208602
0.366250 0.208476
0.366500 0.208352
0.366750 0.208230
0.367000 0.208109
0.367250 0.207990
0.367500 0.207873
0.367750 0.207758
0.368000 0.207645
0.368250 0.207533
0.368500 0.207423
0.368750 0.207314
0.369000 0.207207
0.369250 0.207102
0.369500 0.206999
0.369750 0.206897
0.370000 0.206797
0.370250 0.206698
0.370500 0.206601
0.370750 0.206505
0.371000 0.206410
0.371250 0.206318
0.371500 0.206226
0.371750 0.206136
0.372000 0.206047
0.372250 0.205960
0.372500 0.205874
0.372750 0.205789
0.373000 0.205706
0.373250 0.205623
0.373500 0.205542
0.373750 0.205462
0.374000 0.205383
0.374250 0.205304
0.374500 0.205227
0.374750 0.205151
0.375000 0.205076
0.375250 0.205002
0.375500 0.204929
0.375750 0.204856
0.376000 0.204784
0.376250 0.204714
0.376500 0.204643
0.376750 0.204574
0.377000 0.204505
0.377250 0.204437
0.377500 0.204369
0.377750 0.204302
0.378000 0.204236
0.378250 0.204170
0.378500 0.204104
0.378750 0.204039
0.379000 0.203974
0.379250 0.203910
0.379500 0.203846
0.379750 0.203782
0.380000 0.203719
0.380250 0.203656
0.380500 0.203593
0.380750 0.203530
0.381000 0.203467
0.381250 0.203405
0.381500 0.203343
0.381750 0.203280
0.382000 0.203218
0.382250 0.203156
0.382500 0.203094
0.382750 0.203032
0.383000 0.202970
0.383250 0.202907
0.383500 0.202845
0.383750 0.202782
0.384000 0.202720
0.384250 0.202657
0.384500 0.202594
0.384750 0.202531
0.385000 0.202468
0.385250 0.202404
0.385500 0.202341
0.385750 0.202277
0.386000 0.202212
0.386250 0.202148
0.386500 0.202083
0.386750 0.202017
0.387000 0.201952
0.387250 0.201886
0.387500 0.201820
0.387750 0.201753
0.388000 0.201686
0.388250 0.201618
0.388500 0.201550
0.388750 0.201482
0.389000 0.201413
0.389250 0.201344
0.389500 0.201275
0.389750 0.201204
0.390000 0.201134
0.390250 0.201063
0.390500 0.200991
0.390750 0.200919
0.391000 0.200847
0.391250 0.200774
0.391500 0.200701
0.391750 0.200627
0.392000 0.200552
0.392250 0.200478
0.392500 0.200402
0.392750 0.200326
0.393000 0.200250
0.393250 0.200173
0.393500 0.200096
0.393750 0.200018
0.394000 0.199940
0.394250 0.199861
0.394500 0.199782
0.394750 0.199702
0.395000 0.199622
0.395250 0.199542
0.395500 0.199461
0.395750 0.199380
0.396000 0.199298
0.396250 0.199216
0.396500 0.199133
0.396750 0.199050
0.397000 0.198967
0.397250 0.198884
0.397500 0.198800
0.397750 0.198715
0.398000 0.198631
0.398250 0.198546
0.398500 0.198461
0.398750 0.198376
0.399000 0.198290
0.399250 0.198205
0.399500 0.198119
0.399750 0.198033
0.400000 0.197946
0.400250 0.197860
0.400500 0.197774
0.400750 0.197687
0.401000 0.197600
0.401250 0.197514
0.401500 0.197427
0.401750 0.197341
0.402000 0.197254
0.402250 0.197168
0.402500 0.197081
0.402750 0.196995
0.403000 0.196909
0.403250 0.196823
0.403500 0.196737
0.403750 0.196652
0.404000 0.196567
0.404250 0.196482
0.404500 0.196397
0.404750 0.196313
0.405000 0.196229
0.405250 0.196145
0.405500 0.196062
0.405750 0.195979
0.406000 0.195897
0.406250 0.195816
0.406500 0.195735
0.406750 0.195654
0.407000 0.195574
0.407250 0.195495
0.407500 0.195416
0.407750 0.195338
0.408000 0.195261
0.408250 0.195184
0.408500 0.195108
0.408750 0.195033
0.409000 0.194959
0.409250 0.194885
0.409500 0.194813
0.409750 0.194741
0.410000 0.194670
0.410250 0.194601
0.410500 0.194532
0.410750 0.194464
0.411000 0.194397
0.411250 0.194331
0.411500 0.194266
0.411750 0.194203
0.412000 0.194140
0.412250 0.194078
0.412500 0.194018
0.412750 0.193959
0.413000 0.193901
0.413250 0.193844
0.413500 0.193789
0.413750 0.193734
0.414000 0.193681
0.414250 0.193629
0.414500 0.193579
0.414750 0.193529
0.415000 0.193481
0.415250 0.193435
0.415500 0.193389
0.415750 0.193346
0.416000 0.193303
0.416250 0.193262
0.416500 0.193222
0.416750 0.193184
0.417000 0.193147
0.417250 0.193111
0.417500 0.193077
0.417750 0.193044
0.418000 0.193013
0.418250 0.192984
0.418500 0.192955
0.418750 0.192928
0.419000 0.192903
0.419250 0.192879
0.419500 0.192857
0.419750 0.192836
0.420000 0.192817
0.420250 0.192799
0.420500 0.192782
0.420750 0.192767
0.421000 0.192754
0.421250 0.192742
0.421500 0.192732
0.421750 0.192723
0.422000 0.192716
0.422250 0.192710
0.422500 0.192705
0.422750 0.192702
0.423000 0.192701
0.423250 0.192701
0.423500 0.192703
0.423750 0.192706
0.424000 0.192710
0.424250 0.192716
0.424500 0.192724
0.424750 0.192733
0.425000 0.192743
0.425250 0.192755
0.425500 0.192768
0.425750 0.192783
0.426000 0.192799
0.426250 0.192816
0.426500 0.192835
0.426750 0.192855
0.427000 0.192877
0.427250 0.192900
0.427500 0.192924
0.427750 0.192950
0.428000 0.192977
0.428250 0.193005
0.428500 0.193035
0.428750 0.193066
0.429000 0.193098
0.429250 0.193132
0.429500 0.193166
0.429750 0.193202
0.430000 0.193240
0.430250 0.193278
0.430500 0.193318
0.430750 0.193359
0.431000 0.193401
0.431250 0.193444
0.431500 0.193488
0.431750 0.193534
0.432000 0.193580
0.432250 0.193628
0.432500 0.193677
0.432750 0.193727
0.433000 0.193777
0.433250 0.193829
0.433500 0.193882
0.433750 0.193936
0.434000 0.193991
0.434250 0.194047
0.434500 0.194104
0.434750 0.194162
0.435000 0.194220
0.435250 0.194280
0.435500 0.194340
0.435750 0.194402
0.436000 0.194464
0.436250 0.194527
0.436500 0.194591
0.436750 0.194656
0.437000 0.194721
0.437250 0.194787
0.437500 0.194854
0.437750 0.194922
0.438000 0.194991
0.438250 0.195060
0.438500 0.195130
0.438750 0.195200
0.439000 0.195272
0.439250 0.195343
0.439500 0.195416
0.439750 0.195489
0.440000 0.195563
0.440250 0.195637
0.440500 0.195712
0.440750 0.195787
0.441000 0.195863
0.441250 0.195940
0.441500 0.196017
0.441750 0.196094
0.442000 0.196172
0.442250 0.196251
0.442500 0.196329
0.442750 0.196409
0.443000 0.196489
0.443250 0.196569
0.443500 0.196649
0.443750 0.196730
0.444000 0.196812
0.444250 0.196893
0.444500 0.196975
0.444750 0.197058
0.445000 0.197141
0.445250 0.197224
0.445500 0.197307
0.445750 0.197391
0.446000 0.197475
0.446250 0.197559
0.446500 0.197643
0.446750 0.197728
0.447000 0.197813
0.447250 0.197898
0.447500 0.197984
0.447750 0.198070
0.448000 0.198155
0.448250 0.198242
0.448500 0.198328
0.448750 0.198414
0.449000 0.198501
0.449250 0.198588
0.449500 0.198675
0.449750 0.198762
0.450000 0.198850
0.450250 0.198937
0.450500 0.199025
0.450750 0.199113
0.451000 0.199201
0.451250 0.199289
0.451500 0.199377
0.451750 0.199465
0.452000 0.199554
0.452250 0.199642
0.452500 0.199731
0.452750 0.199819
0.453000 0.199908
0.453250 0.199997
0.453500 0.200086
0.453750 0.200175
0.454000 0.200265
0.454250 0.200354
0.454500 0.200443
0.454750 0.200533
0.455000 0.200622
0.455250 0.200712
0.455500 0.200802
0.455750 0.200891
0.456000 0.200981
0.456250 0.201071
0.456500 0.201161
0.456750 0.201251
0.457000 0.201341
0.457250 0.201432
0.457500 0.201522
0.457750 0.201612
0.458000 0.201703
0.458250 0.201793
0.458500 0.201884
0.458750 0.201974
0.459000 0.202065
0.459250 0.202156
0.459500 0.202247
0.459750 0.202338
0.460000 0.202429
0.460250 0.202520
0.460500 0.202611
0.460750 0.202702
0.461000 0.202794
0.461250 0.202885
0.461500 0.202977
0.461750 0.203069
0.462000 0.203160
0.462250 0.203252
0.462500 0.203344
0.462750 0.203436
0.463000 0.203528
0.463250 0.203621
0.463500 0.203713
0.463750 0.203806
0.464000 0.203898
0.464250 0.203991
0.464500 0.204084
0.464750 0.204177
0.465000 0.204270
0.465250 0.204363
0.465500 0.204456
0.465750 0.204550
0.466000 0.204643
0.466250 0.204737
0.466500 0.204831
0.466750 0.204925
0.467000 0.205019
0.467250 0.205114
0.467500 0.205208
0.467750 0.205303
0.468000 0.205398
0.468250 0.205493
0.468500 0.205588
0.468750 0.205683
0.469000 0.205779
0.469250 0.205874
0.469500 0.205970
0.469750 0.206066
0.470000 0.206162
0.470250 0.206259
0.470500 0.206355
0.470750 0.206452
0.471000 0.206549
0.471250 0.206646
0.471500 0.206743
0.471750 0.206841
0.472000 0.206939
0.472250 0.207037
0.472500 0.207135
0.472750 0.207233
0.473000 0.207332
0.473250 0.207430
0.473500 0.207530
0.473750 0.207629
0.474000 0.207728
0.474250 0.207828
0.474500 0.207928
0.474750 0.208028
0.475000 0.208128
0.475250 0.208229
0.475500 0.208330
0.475750 0.208431
0.476000 0.208532
0.476250 0.208634
0.476500 0.208735
0.476750 0.208837
0.477000 0.208940
0.477250 0.209042
0.477500 0.209145
0.477750 0.209248
0.478000 0.209351
0.478250 0.209455
0.478500 0.209558
0.478750 0.209662
0.479000 0.209767
0.479250 0.209871
0.479500 0.209976
0.479750 0.210081
0.480000 0.210186
0.480250 0.210292
0.480500 0.210398
0.480750 0.210504
0.481000 0.210610
0.481250 0.210717
0.481500 0.210823
0.481750 0.210931
0.482000 0.211038
0.482250 0.211145
0.482500 0.211253
0.482750 0.211361
0.483000 0.211470
0.483250 0.211579
0.483500 0.211687
0.483750 0.211797
0.484000 0.211906
0.484250 0.212016
0.484500 0.212126
0.484750 0.212236
0.485000 0.212346
0.485250 0.212457
0.485500 0.212568
0.485750 0.212679
0.486000 0.212791
0.486250 0.212903
0.486500 0.213015
0.486750 0.213127
0.487000 0.213240
0.487250 0.213352
0.487500 0.213465
0.487750 0.213579
0.488000 0.213692
0.488250 0.213806
0.488500 0.213920
0.488750 0.214034
0.489000 0.214149
0.489250 0.214264
0.489500 0.214379
0.489750 0.214494
0.490000 0.214610
0.490250 0.214725
0.490500 0.214841
0.490750 0.214958
0.491000 0.215074
0.491250 0.215191
0.491500 0.215308
0.491750 0.215425
0.492000 0.215542
0.492250 0.215660
0.492500 0.215778
0.492750 0.215896
0.493000 0.216014
0.493250 0.216133
0.493500 0.216252
0.493750 0.216371
0.494000 0.216490
0.494250 0.216610
0.494500 0.216729
0.494750 0.216849
0.495000 0.216970
0.495250 0.217090
0.495500 0.217211
0.495750 0.217331
0.496000 0.217452
0.496250 0.217574
0.496500 0.217695
0.496750 0.217817
0.497000 0.217939
0.497250 0.218061
0.497500 0.218183
0.497750 0.218306
0.498000 0.218429
0.498250 0.218552
0.498500 0.218675
0.498750 0.218798
0.499000 0.218922
0.499250 0.219046
0.499500 0.219170
0.499750 0.219294
0.500000 0.219418
0.509900 0.223746
0.519800 0.228492
0.529700 0.233648
0.539600 0.239074
0.549500 0.244524
0.559400 0.249862
0.569300 0.255184
0.579200 0.260663
0.589100 0.266369
0.599000 0.272278
0.608900 0.278219
0.618800 0.283637
0.628700 0.287654
0.638600 0.289673
0.648500 0.289891
0.658400 0.289138
0.668300 0.288300
0.678200 0.287941
0.688100 0.288375
0.698000 0.289762
0.707900 0.291962
0.717800 0.294413
0.727700 0.296373
0.737600 0.297391
0.747500 0.297618
0.757400 0.297712
0.767300 0.298454
0.777200 0.300432
0.787100 0.303843
0.797000 0.308388
0.806900 0.313332
0.816800 0.317764
0.826700 0.320902
0.836600 0.322288
0.846500 0.321948
0.856400 0.320449
0.866300 0.318689
0.876200 0.317547
0.886100 0.317673
0.896000 0.319423
0.905900 0.322694
0.915800 0.326720
0.925700 0.330357
0.935600 0.332905
0.945500 0.334511
0.955400 0.335479
0.965300 0.335595
0.975200 0.334556
0.985100 0.332630
0.995000 0.330341
1.004900 0.327631
1.014800 0.323775
1.024700 0.318182
1.034600 0.311023
1.044500 0.303105
1.054400 0.295327
1.064300 0.288294
1.074200 0.282384
1.084100 0.278009
1.094000 0.275646
1.103900 0.275628
1.113800 0.277931
1.123700 0.282178
1.133600 0.287811
1.143500 0.294333
1.153400 0.301366
1.163300 0.308521
1.173200 0.315400
1.183100 0.321878
1.193000 0.328179
1.202900 0.334594
1.212800 0.341147
1.222700 0.347325
1.232600 0.352136
1.242500 0.354657
1.252400 0.354636
1.262300 0.352615
1.272200 0.349544
1.282100 0.346133
1.292000 0.342511
1.301900 0.338500
1.311800 0.334187
1.321700 0.330116
1.331600 0.326896
1.341500 0.324821
1.351400 0.323857
1.361300 0.323815
1.371200 0.324445
1.381100 0.325486
1.391000 0.326785
1.400900 0.328454
1.410800 0.330821
1.420700 0.334185
1.430600 0.338685
1.440500 0.344398
1.450400 0.351433
1.460300 0.359949
1.470200 0.370198
1.480100 0.382438
1.490000 0.396650
1.499900 0.412431
1.509800 0.429257
1.519700 0.446595
1.529600 0.463533
1.539500 0.478490
1.549400 0.489699
1.559300 0.496372
1.569200 0.499415
1.579100 0.500627
1.589000 0.501353
1.598900 0.502213
1.608800 0.503538
1.618700 0.505529
1.628600 0.508069
1.638500 0.510690
1.648400 0.512937
1.658300 0.514813
1.668200 0.516969
1.678100 0.520584
1.688000 0.526967
1.697900 0.537140
1.707800 0.551619
1.717700 0.570492
1.727600 0.593743
1.737500 0.621522
1.747400 0.653996
1.757300 0.690834
1.767200 0.730771
1.777100 0.771785
1.787000 0.811814
1.796900 0.849654
1.806800 0.885709
1.816700 0.921866
1.826600 0.960285
1.836500 1.002202
1.846400 1.047298
1.856300 1.093896
1.866200 1.140203
1.876100 1.185796
1.886000 1.232308
1.895900 1.282704
1.905800 1.339012
1.915700 1.399880
1.925600 1.460077
1.935500 1.512698
1.945400 1.552521
1.955300 1.577762
1.965200 1.589460
1.975100 1.590023
1.985000 1.581730
1.994900 1.565177
2.004800 1.538816
2.014700 1.501238
2.024600 1.454360
2.034500 1.403486
2.044400 1.354064
2.054300 1.308559
2.064200 1.265936
2.074100 1.224038
2.084000 1.182875
2.093900 1.145413
2.103800 1.115319
2.113700 1.094693
2.123600 1.083674
2.133500 1.081363
2.143400 1.086988
2.153300 1.100278
2.163200 1.120764
2.173100 1.146818
2.183000 1.175700
2.192900 1.204885
2.202800 1.233162
2.212700 1.260034
2.222600 1.284171
2.232500 1.302980
2.242400 1.313962
2.252300 1.316271
2.262200 1.311126
2.272100 1.301067
2.282000 1.288524
2.291900 1.274640
2.301800 1.259847
2.311700 1.245782
2.321600 1.235411
2.331500 1.230543
2.341400 1.229772
2.351300 1.228896
2.361200 1.223348
2.371100 1.210884
2.381000 1.192439
2.390900 1.171039
2.400800 1.150189
2.410700 1.132506
2.420600 1.119188
2.430500 1.110598
2.440400 1.107125
2.450300 1.109395
2.460200 1.118045
2.470100 1.133593
2.480000 1.156172
2.489900 1.185189
2.499800 1.219374
2.509700 1.256965
2.519600 1.295480
2.529500 1.331534
2.539400 1.361433
2.549300 1.381819
2.559200 1.389411
2.569100 1.381068
2.579000 1.355738
2.588900 1.316424
2.598800 1.269326
2.608700 1.221104
2.618600 1.176854
2.628500 1.139497
2.638400 1.110113
2.648300 1.088802
2.658200 1.075703
2.668100 1.071563
2.678000 1.077305
2.687900 1.092938
2.697800 1.116624
2.707700 1.144222
2.717600 1.169858
2.727500 1.188023
2.737400 1.196063
2.747300 1.194990
2.757200 1.187994
2.767100 1.178173
2.777000 1.167493
2.786900 1.157606
2.796800 1.150850
2.806700 1.149788
2.816600 1.156032
2.826500 1.169640
2.836400 1.189142
2.846300 1.211670
2.856200 1.233092
2.866100 1.248543
2.876000 1.253595
2.885900 1.245792
2.895800 1.225966
2.905700 1.198188
2.915600 1.167783
2.925500 1.139194
2.935400 1.115341
2.945300 1.097843
2.955200 1.086920
2.965100 1.081242
2.975000 1.078523
2.984900 1.076499
2.994800 1.073461
3.004700 1.068475
3.014600 1.061606
3.024500 1.053462
3.034400 1.044181
3.044300 1.033268
3.054200 1.020594
3.064100 1.006972
3.074000 0.993584
3.083900 0.981362
3.093800 0.970796
3.103700 0.961954
3.113600 0.954655
3.123500 0.948452
3.133400 0.942506
3.143300 0.935808
3.153200 0.927850
3.163100 0.919224
3.173000 0.911665
3.182900 0.907599
3.192800 0.909205
3.202700 0.917332
3.212600 0.931040
3.222500 0.947909
3.232400 0.964734
3.242300 0.978400
3.252200 0.986716
3.262100 0.988752
3.272000 0.984542
3.281900 0.974491
3.291800 0.959129
3.301700 0.939667
3.311600 0.918273
3.321500 0.897119
3.331400 0.877548
3.341300 0.860460
3.351200 0.846953
3.361100 0.838399
3.371000 0.836104
3.380900 0.840741
3.390800 0.851591
3.400700 0.865963
3.410600 0.879611
3.420500 0.888703
3.430400 0.892192
3.440300 0.892403
3.450200 0.893391
3.460100 0.898671
3.470000 0.909814
3.479900 0.926526
3.489800 0.947696
3.499700 0.971783
3.509600 0.996241
3.519500 1.017764
3.529400 1.033743
3.539300 1.043093
3.549200 1.045785
3.559100 1.042027
3.569000 1.031851
3.578900 1.015564
3.588800 0.994449
3.598700 0.970737
3.608600 0.947076
3.618500 0.926074
3.628400 0.909786
3.638300 0.899076
3.648200 0.893330
3.658100 0.890797
3.668000 0.889445
3.677900 0.888109
3.687800 0.887197
3.697700 0.888070
3.707600 0.891623
3.717500 0.897592
3.727400 0.905326
3.737300 0.914956
3.747200 0.927393
3.757100 0.943244
3.767000 0.962028
3.776900 0.982172
3.786800 1.001039
3.796700 1.015108
3.806600 1.021692
3.816500 1.021608
3.826400 1.019587
3.836300 1.021358
3.846200 1.030427
3.856100 1.047018
3.866000 1.068546
3.875900 1.090588
3.885800 1.108417
3.895700 1.119108
3.905600 1.123107
3.915500 1.123646
3.925400 1.123987
3.935300 1.124879
3.945200 1.124385
3.955100 1.119982
3.965000 1.110646
3.974900 1.097368
3.984800 1.082636
3.994700 1.069109
4.004600 1.057978
4.014500 1.048671
4.024400 1.039972
4.034300 1.030873
4.044200 1.020486
4.054100 1.007842
4.064000 0.992024
4.073900 0.972484
4.083800 0.949353
4.093700 0.923566
4.103600 0.896773
4.113500 0.870926
4.123400 0.847672
4.133300 0.828156
4.143200 0.813130
4.153100 0.802993
4.163000 0.797959
4.172900 0.798258
4.182800 0.803923
4.192700 0.814196
4.202600 0.827227
4.212500 0.840679
4.222400 0.852765
4.232300 0.862934
4.242200 0.872066
4.252100 0.882018
4.262000 0.894561
4.271900 0.910504
4.281800 0.929535
4.291700 0.950198
4.301600 0.969695
4.311500 0.984635
4.321400 0.992808
4.331300 0.993919
4.341200 0.988876
4.351100 0.979251
4.361000 0.967060
4.370900 0.954072
4.380800 0.941259
4.390700 0.929061
4.400600 0.917553
4.410500 0.906363
4.420400 0.895336
4.430300 0.885266
4.440200 0.877156
4.450100 0.870855
4.460000 0.864871
4.469900 0.857480
4.479800 0.848253
4.489700 0.838730
4.499600 0.831613
4.509500 0.829390
4.519400 0.833297
4.529300 0.842800
4.539200 0.855819
4.549100 0.869555
4.559000 0.881363
4.568900 0.889405
4.578800 0.892835
4.588700 0.891640
4.598600 0.886804
4.608500 0.880447
4.618400 0.874926
4.628300 0.871593
4.638200 0.870408
4.648100 0.870461
4.658000 0.870675
4.667900 0.870076
4.677800 0.867714
4.687700 0.862691
4.697600 0.854406
4.707500 0.842961
4.717400 0.829334
4.727300 0.815009
4.737200 0.801267
4.747100 0.788516
4.757000 0.776160
4.766900 0.763272
4.776800 0.749547
4.786700 0.735477
4.796600 0.721635
4.806500 0.708375
4.816400 0.696358
4.826300 0.686862
4.836200 0.681179
4.846100 0.679676
4.856000 0.681619
4.865900 0.685779
4.875800 0.691128
4.885700 0.697236
4.895600 0.704144
4.905500 0.711761
4.915400 0.719597
4.925300 0.727282
4.935200 0.735009
4.945100 0.743233
4.955000 0.752248
4.964900 0.761994
4.974800 0.771687
4.984700 0.779828
4.994600 0.785123
5.004500 0.787429
5.014400 0.788062
5.024300 0.789311
5.034200 0.793117
5.044100 0.800073
5.054000 0.809665
5.063900 0.821077
5.073800 0.833487
5.083700 0.846100
5.093600 0.858365
5.103500 0.869646
5.113400 0.878154
5.123300 0.880781
5.133200 0.875007
5.143100 0.861057
5.153000 0.842012
5.162900 0.821919
5.172800 0.803441
5.182700 0.786626
5.192600 0.769612
5.202500 0.750578
5.212400 0.729210
5.222300 0.706506
5.232200 0.683623
5.242100 0.661454
5.252000 0.641034
5.261900 0.623730
5.271800 0.610919
5.281700 0.603595
5.291600 0.602130
5.301500 0.606138
5.311400 0.614515
5.321300 0.625710
5.331200 0.637870
5.341100 0.648814
5.351000 0.656429
5.360900 0.659640
5.370800 0.658878
5.380700 0.655452
5.390600 0.650828
5.400500 0.646412
5.410400 0.643361
5.420300 0.642223
5.430200 0.642675
5.440100 0.643753
5.450000 0.644550
5.459900 0.644644
5.469800 0.643785
5.479700 0.641560
5.489600 0.637582
5.499500 0.631805
5.509400 0.624542
5.519300 0.616148
5.529200 0.606942
5.539100 0.597516
5.549000 0.588571
5.558900 0.580361
5.568800 0.572466
5.578700 0.563976
5.588600 0.553990
5.598500 0.542319
5.608400 0.529703
5.618300 0.517292
5.628200 0.506143
5.638100 0.497024
5.648000 0.490344
5.657900 0.486358
5.667800 0.485406
5.677700 0.487774
5.687600 0.493409
5.697500 0.501922
5.707400 0.512705
5.717300 0.524814
5.727200 0.536802
5.737100 0.546874
5.747000 0.553502
5.756900 0.556230
5.766800 0.556002
5.776700 0.554698
5.786600 0.554124
5.796500 0.555111
5.806400 0.557328
5.816300 0.559978
5.826200 0.562927
5.836100 0.567085
5.846000 0.573548
5.855900 0.582641
5.865800 0.593940
5.875700 0.606998
5.885600 0.621571
5.895500 0.636953
5.905400 0.651236
5.915300 0.661314
5.925200 0.664310
5.935100 0.659880
5.945000 0.650658
5.954900 0.639952
5.964800 0.629619
5.974700 0.619748
5.984600 0.609023
5.994500 0.595358
6.004400 0.577267
6.014300 0.555160
6.024200 0.531186
6.034100 0.507946
6.044000 0.487353
6.053900 0.470270
6.063800 0.456746
6.073700 0.446448
6.083600 0.439009
6.093500 0.434035
6.103400 0.430692
6.113300 0.427441
6.123200 0.422444
6.133100 0.414388
6.143000 0.403171
6.152900 0.389960
6.162800 0.376502
6.172700 0.364416
6.182600 0.354922
6.192500 0.348763
6.202400 0.346135
6.212300 0.346684
6.222200 0.349651
6.232100 0.354132
6.242000 0.359144
6.251900 0.363611
6.261800 0.366631
6.271700 0.367944
6.281600 0.368051
6.291500 0.367816
6.301400 0.367957
6.311300 0.368878
6.321200 0.370786
6.331100 0.373779
6.341000 0.377814
6.350900 0.382762
6.360800 0.388422
6.370700 0.394400
6.380600 0.400176
6.390500 0.405475
6.400400 0.410333
6.410300 0.414631
6.420200 0.417845
6.430100 0.419503
6.440000 0.419749
6.449900 0.419350
6.459800 0.419382
6.469700 0.420918
6.479600 0.424659
6.489500 0.430652
6.499400 0.438378
6.509300 0.447104
6.519200 0.456227
6.529100 0.465336
6.539000 0.474070
6.548900 0.482195
6.558800 0.489859
6.568700 0.497450
6.578600 0.504923
6.588500 0.511390
6.598400 0.515511
6.608300 0.516355
6.618200 0.513963
6.628100 0.509400
6.638000 0.504295
6.647900 0.500072
6.657800 0.497346
6.667700 0.495941
6.677600 0.495460
6.687500 0.495785
6.697400 0.497025
6.707300 0.499280
6.717200 0.502589
6.727100 0.506809
6.737000 0.511342
6.746900 0.515196
6.756800 0.517573
6.766700 0.518373
6.776600 0.518117
6.786500 0.517542
6.796400 0.517166
6.806300 0.516931
6.816200 0.516166
6.826100 0.513963
6.836000 0.509712
6.845900 0.503377
6.855800 0.495390
6.865700 0.486476
6.875600 0.477512
6.885500 0.469240
6.895400 0.462019
6.905300 0.455812
6.915200 0.450278
6.925100 0.445009
6.935000 0.439844
6.944900 0.434906
6.954800 0.430403
6.964700 0.426592
6.974600 0.423828
6.984500 0.422378
6.994400 0.422180
7.004300 0.422889
7.014200 0.424149
7.024100 0.425686
7.034000 0.427196
7.043900 0.428548
7.053800 0.430091
7.063700 0.432516
7.073600 0.436345
7.083500 0.441579
7.093400 0.447678
7.103300 0.453694
7.113200 0.458611
7.123100 0.461909
7.133000 0.463983
7.142900 0.465927
7.152800 0.468821
7.162700 0.473132
7.172600 0.478594
7.182500 0.484484
7.192400 0.490106
7.202300 0.495235
7.212200 0.500135
7.222100 0.505214
7.232000 0.510823
7.241900 0.517183
7.251800 0.524239
7.261700 0.531604
7.271600 0.538526
7.281500 0.543934
7.291400 0.546811
7.301300 0.546813
7.311200 0.544635
7.321100 0.541621
7.331000 0.538756
7.340900 0.536051
7.350800 0.532854
7.360700 0.528593
7.370600 0.523200
7.380500 0.517088
7.390400 0.510816
7.400300 0.504439
7.410200 0.497264
7.420100 0.488678
7.430000 0.479171
7.439900 0.470233
7.449800 0.463495
7.459700 0.460148
7.469600 0.460824
7.479500 0.465737
7.489400 0.474876
7.499300 0.488111
7.509200 0.505240
7.519100 0.525976
7.529000 0.549828
7.538900 0.575988
7.548800 0.603281
7.558700 0.630190
7.568600 0.655066
7.578500 0.676528
7.588400 0.693717
7.598300 0.706126
7.608200 0.713366
7.618100 0.715303
7.628000 0.712130
7.637900 0.704266
7.647800 0.692405
7.657700 0.677389
7.667600 0.659927
7.677500 0.640864
7.687400 0.621762
7.697300 0.604699
7.707200 0.591493
7.717100 0.583230
7.727000 0.579829
7.736900 0.579524
7.746800 0.578996
7.756700 0.574546
7.766600 0.563840
7.776500 0.547297
7.786400 0.527814
7.796300 0.508750
7.806200 0.492232
7.816100 0.479087
7.826000 0.469572
7.835900 0.463640
7.845800 0.460474
7.855700 0.458327
7.865600 0.455467
7.875500 0.451325
7.885400 0.446344
7.895300 0.441067
7.905200 0.435802
7.915100 0.430752
7.925000 0.425861
7.934900 0.420671
7.944800 0.414610
7.954700 0.407341
7.964600 0.398873
7.974500 0.389616
7.984400 0.380321
7.994300 0.371689
8.004200 0.364038
8.014100 0.357288
8.024000 0.351116
8.033900 0.345142
8.043800 0.339178
8.053700 0.333294
8.063600 0.327590
8.073500 0.321924
8.083400 0.315966
8.093300 0.309518
8.103200 0.302770
8.113100 0.296261
8.123000 0.290665
8.132900 0.286538
8.142800 0.284220
8.152700 0.283843
8.162600 0.285359
8.172500 0.288616
8.182400 0.293490
8.192300 0.299955
8.202200 0.308032
8.212100 0.317698
8.222000 0.328673
8.231900 0.340008
8.241800 0.349726
8.251700 0.355124
8.261600 0.354110
8.271500 0.346760
8.281400 0.335406
8.291300 0.323075
8.301200 0.312004
8.311100 0.303211
8.321000 0.296783
8.330900 0.292295
8.340800 0.289055
8.350700 0.286269
8.360600 0.283286
8.370500 0.279763
8.380400 0.275554
8.390300 0.270604
8.400200 0.265059
8.410100 0.259414
8.420000 0.254421
8.429900 0.250779
8.439800 0.248861
8.449700 0.248665
8.459600 0.249938
8.469500 0.252294
8.479400 0.255349
8.489300 0.258819
8.499200 0.262510
8.509100 0.266249
8.519000 0.269677
8.528900 0.271954
8.538800 0.271919
8.548700 0.268850
8.558600 0.263030
8.568500 0.255494
8.578400 0.247454
8.588300 0.239950
8.598200 0.233685
8.608100 0.228954
8.618000 0.225730
8.627900 0.223905
8.637800 0.223488
8.647700 0.224587
8.657600 0.227279
8.667500 0.231544
8.677400 0.237263
8.687300 0.244163
8.697200 0.251725
8.707100 0.259229
8.717000 0.265927
8.726900 0.271167
8.736800 0.274538
8.746700 0.276044
8.756600 0.276043
8.766500 0.274866
8.776400 0.272540
8.786300 0.269037
8.796200 0.264805
8.806100 0.260861
8.816000 0.258224
8.825900 0.257316
8.835800 0.257747
8.845700 0.258457
8.855600 0.258129
8.865500 0.255891
8.875400 0.251799
8.885300 0.246487
8.895200 0.240503
8.905100 0.234200
8.915000 0.228039
8.924900 0.222631
8.934800 0.218494
8.944700 0.215898
8.954600 0.214888
8.964500 0.215359
8.974400 0.217121
8.984300 0.219907
8.994200 0.223431
9.004100 0.227445
9.014000 0.231685
9.023900 0.235788
9.033800 0.239298
9.043700 0.241738
9.053600 0.242833
9.063500 0.242732
9.073400 0.241762
9.083300 0.239997
9.093200 0.237281
9.103100 0.233635
9.113000 0.229475
9.122900 0.225365
9.132800 0.221692
9.142700 0.218575
9.152600 0.215929
9.162500 0.213633
9.172400 0.211723
9.182300 0.210458
9.192200 0.210192
9.202100 0.211149
9.212000 0.213293
9.221900 0.216368
9.231800 0.220090
9.241700 0.224268
9.251600 0.228719
9.261500 0.233097
9.271400 0.236816
9.281300 0.239101
9.291200 0.239330
9.301100 0.237530
9.311000 0.234440
9.320900 0.230967
9.330800 0.227587
9.340700 0.224256
9.350600 0.220850
9.360500 0.217530
9.370400 0.214671
9.380300 0.212628
9.390200 0.211569
9.400100 0.211408
9.410000 0.211821
9.419900 0.212422
9.429800 0.212929
9.439700 0.213181
9.449600 0.213053
9.459500 0.212472
9.469400 0.211526
9.479300 0.210474
9.489200 0.209624
9.499100 0.209183
9.509000 0.209217
9.518900 0.209706
9.528800 0.210546
9.538700 0.211451
9.548600 0.211955
9.558500 0.211641
9.568400 0.210367
9.578300 0.208293
9.588200 0.205862
9.598100 0.203675
9.608000 0.202270
9.617900 0.202001
9.627800 0.203098
9.637700 0.205711
9.647600 0.209809
9.657500 0.215065
9.667400 0.220860
9.677300 0.226323
9.687200 0.230430
9.697100 0.232330
9.707000 0.231803
9.716900 0.229454
9.726800 0.226395
9.736700 0.223653
9.746600 0.221809
9.756500 0.220951
9.766400 0.220743
9.776300 0.220668
9.786200 0.220379
9.796100 0.219893
9.806000 0.219576
9.815900 0.220085
9.825800 0.222142
9.835700 0.226124
9.845600 0.231758
9.855500 0.238199
9.865400 0.244465
9.875300 0.249842
9.885200 0.253728
9.895100 0.255165
9.905000 0.253044
9.914900 0.247058
9.924800 0.238172
9.934700 0.228091
9.944600 0.218409
9.954500 0.210119
9.964400 0.203622
9.974300 0.198956
9.984200 0.195968
9.994100 0.194356
10.004000 0.193701
10.013900 0.193574
10.023800 0.193712
10.033700 0.194090
10.043600 0.194790
10.053500 0.195726
10.063400 0.196434
10.073300 0.196245
10.083200 0.194801
10.093100 0.192380
10.103000 0.189564
10.112900 0.186689
10.122800 0.183759
10.132700 0.180872
10.142600 0.178515
10.152500 0.177295
10.162400 0.177541
10.172300 0.179263
10.182200 0.182260
10.192100 0.186050
10.202000 0.189781
10.211900 0.192521
10.221800 0.193920
10.231700 0.194475
10.241600 0.194997
10.251500 0.195949
10.261400 0.197321
10.271300 0.198853
10.281200 0.200297
10.291100 0.201523
10.301000 0.202402
10.310900 0.202622
10.320800 0.201799
10.330700 0.199917
10.340600 0.197543
10.350500 0.195512
10.360400 0.194393
10.370300 0.194225
10.380200 0.194635
10.390100 0.195195
10.400000 0.195720
10.409900 0.196269
10.419800 0.196931
10.429700 0.197696
10.439600 0.198478
10.449500 0.199252
10.459400 0.200133
10.469300 0.201195
10.479200 0.202172
10.489100 0.202389
10.499000 0.201054
10.508900 0.197793
10.518800 0.193005
10.528700 0.187658
10.538600 0.182732
10.548500 0.178844
10.558400 0.176169
10.568300 0.174559
10.578200 0.173728
10.588100 0.173440
10.598000 0.173708
10.607900 0.174834
10.617800 0.177138
10.627700 0.180591
10.637600 0.184602
10.647500 0.188149
10.657400 0.190306
10.667300 0.190881
10.677200 0.190490
10.687100 0.189962
10.697000 0.189803
10.706900 0.190142
10.716800 0.190940
10.726700 0.192068
10.736600 0.193230
10.746500 0.194005
10.756400 0.194096
10.766300 0.193618
10.776200 0.193059
10.786100 0.192952
10.796000 0.193637
10.805900 0.195232
10.815800 0.197631
10.825700 0.200449
10.835600 0.202999
10.845500 0.204491
10.855400 0.204473
10.865300 0.203125
10.875200 0.201084
10.885100 0.199050
10.895000 0.197547
10.904900 0.196841
10.914800 0.197042
10.924700 0.198260
10.934600 0.200588
10.944500 0.203913
10.954400 0.207787
10.964300 0.211397
10.974200 0.213710
10.984100 0.214039
10.994000 0.212711
11.003900 0.211038
11.013800 0.210630
11.023700 0.212735
11.033600 0.217861
11.043500 0.225646
11.053400 0.234930
11.063300 0.244123
11.073200 0.251786
11.083100 0.256992
11.093000 0.259271
11.102900 0.258469
11.112800 0.254767
11.122700 0.248738
11.132600 0.241194
11.142500 0.232850
11.152400 0.224076
11.162300 0.214966
11.172200 0.205738
11.182100 0.197028
11.192000 0.189635
11.201900 0.184118
11.211800 0.180668
11.221700 0.179185
11.231600 0.179344
11.241500 0.180622
11.251400 0.182368
11.261300 0.184025
11.271200 0.185360
11.281100 0.186388
11.291000 0.186985
11.300900 0.186792
11.310800 0.185631
11.320700 0.183860
11.330600 0.182192
11.340500 0.181262
11.350400 0.181396
11.360300 0.182604
11.370200 0.184612
11.380100 0.186938
11.390000 0.189088
11.399900 0.190746
11.409800 0.191819
11.419700 0.192322
11.429600 0.192278
11.439500 0.191808
11.449400 0.191235
11.459300 0.190973
11.469200 0.191294
11.479100 0.192294
11.489000 0.194091
11.498900 0.196848
11.508800 0.200509
11.518700 0.204488
11.528600 0.207617
11.538500 0.208728
11.548400 0.207592
11.558300 0.205108
11.568200 0.202402
11.578100 0.199986
11.588000 0.197717
11.597900 0.195223
11.607800 0.192285
11.617700 0.188945
11.627600 0.185393
11.637500 0.181922
11.647400 0.178945
11.657300 0.176929
11.667200 0.176252
11.677100 0.177099
11.687000 0.179396
11.696900 0.182772
11.706800 0.186663
11.716700 0.190466
11.726600 0.193597
11.736500 0.195540
11.746400 0.196050
11.756300 0.195345
11.766200 0.194089
11.776100 0.193165
11.786000 0.193293
11.795900 0.194654
11.805800 0.196769
11.815700 0.198825
11.825600 0.200241
11.835500 0.200849
11.845400 0.200642
11.855300 0.199692
11.865200 0.198295
11.875100 0.196826
11.885000 0.195244
11.894900 0.192824
11.904800 0.188524
11.914700 0.181914
11.924600 0.173753
11.934500 0.165457
11.944400 0.158161
11.954300 0.152342
11.964200 0.147995
11.974100 0.144919
11.984000 0.142972
11.993900 0.142182
12.003800 0.142600
12.013700 0.144033
12.023600 0.145943
12.033500 0.147626
12.043400 0.148593
12.053300 0.148920
12.063200 0.149168
12.073100 0.149866
12.083000 0.151055
12.092900 0.152249
12.102800 0.152839
12.112700 0.152571
12.122600 0.151601
12.132500 0.150154
12.142400 0.148120
12.152300 0.144926
12.162200 0.139953
12.172100 0.133220
12.182000 0.125501
12.191900 0.117768
12.201800 0.110648
12.211700 0.104318
12.221600 0.098706
12.231500 0.093715
12.241400 0.089329
12.251300 0.085596
12.261200 0.082534
12.271100 0.080086
12.281000 0.078140
12.290900 0.076580
12.300800 0.075285
12.310700 0.074168
12.320600 0.073239
12.330500 0.072613
12.340400 0.072424
12.350300 0.072734
12.360200 0.073487
12.370100 0.074548
12.380000 0.075768
12.389900 0.077012
12.399800 0.078158
12.409700 0.079104
12.419600 0.079791
12.429500 0.080219
12.439400 0.080416
12.449300 0.080397
12.459200 0.080176
12.469100 0.079834
12.479000 0.079519
12.488900 0.079347
12.498800 0.079349
12.508700 0.079529
12.518600 0.079917
12.528500 0.080499
12.538400 0.081167
12.548300 0.081773
12.558200 0.082249
12.568100 0.082653
12.578000 0.083088
12.587900 0.083568
12.597800 0.083917
12.607700 0.083833
12.617600 0.083065
12.627500 0.081584
12.637400 0.079582
12.647300 0.077331
12.657200 0.075094
12.667100 0.073114
12.677000 0.071599
12.686900 0.070685
12.696800 0.070421
12.706700 0.070791
12.716600 0.071778
12.726500 0.073389
12.736400 0.075639
12.746300 0.078480
12.756200 0.081769
12.766100 0.085274
12.776000 0.088770
12.785900 0.092214
12.795800 0.095882
12.805700 0.100255
12.815600 0.105712
12.825500 0.112232
12.835400 0.119262
12.845300 0.125830
12.855200 0.130924
12.865100 0.133793
12.875000 0.134022
12.884900 0.131659
12.894800 0.127403
12.904700 0.122341
12.914600 0.117366
12.924500 0.112903
12.934400 0.108978
12.944300 0.105426
12.954200 0.102093
12.964100 0.098919
12.974000 0.095883
12.983900 0.092963
12.993800 0.090186
13.003700 0.087675
13.013600 0.085590
13.023500 0.084015
13.033400 0.082908
13.043300 0.082144
13.053200 0.081570
13.063100 0.081091
13.073000 0.080756
13.082900 0.080754
13.092800 0.081279
13.102700 0.082366
13.112600 0.083844
13.122500 0.085385
13.132400 0.086598
13.142300 0.087161
13.152200 0.086942
13.162100 0.086023
13.172000 0.084631
13.181900 0.083074
13.191800 0.081684
13.201700 0.080716
13.211600 0.080243
13.221500 0.080135
13.231400 0.080144
13.241300 0.080011
13.251200 0.079557
13.261100 0.078678
13.271000 0.077341
13.280900 0.075607
13.290800 0.073629
13.300700 0.071559
13.310600 0.069481
13.320500 0.067412
13.330400 0.065340
13.340300 0.063268
13.350200 0.061238
13.360100 0.059339
13.370000 0.057688
13.379900 0.056381
13.389800 0.055440
13.399700 0.054837
13.409600 0.054545
13.419500 0.054574
13.429400 0.054947
13.439300 0.055686
13.449200 0.056798
13.459100 0.058219
13.469000 0.059795
13.478900 0.061311
13.488800 0.062528
13.498700 0.063200
13.508600 0.063121
13.518500 0.062206
13.528400 0.060540
13.538300 0.058379
13.548200 0.056041
13.558100 0.053763
13.568000 0.051643
13.577900 0.049674
13.587800 0.047823
13.597700 0.046075
13.607600 0.044441
13.617500 0.042935
13.627400 0.041563
13.637300 0.040325
13.647200 0.039229
13.657100 0.038284
13.667000 0.037494
13.676900 0.036842
13.686800 0.036281
13.696700 0.035734
13.706600 0.035135
13.716500 0.034494
13.726400 0.033903
13.736300 0.033472
13.746200 0.033259
13.756100 0.033253
13.766000 0.033401
13.775900 0.033674
13.785800 0.034103
13.795700 0.034722
13.805600 0.035485
13.815500 0.036245
13.825400 0.036840
13.835300 0.037223
13.845200 0.037498
13.855100 0.037819
13.865000 0.038272
13.874900 0.038841
13.884800 0.039454
13.894700 0.040043
13.904600 0.040571
13.914500 0.041040
13.924400 0.041444
13.934300 0.041727
13.944200 0.041808
13.954100 0.041697
13.964000 0.041509
13.973900 0.041369
13.983800 0.041303
13.993700 0.041242
14.003600 0.041092
14.013500 0.040767
14.023400 0.040192
14.033300 0.039323
14.043200 0.038169
14.053100 0.036768
14.063000 0.035173
14.072900 0.033493
14.082800 0.031877
14.092700 0.030449
14.102600 0.029266
14.112500 0.028324
14.122400 0.027582
14.132300 0.026993
14.142200 0.026538
14.152100 0.026225
14.162000 0.026063
14.171900 0.026049
14.181800 0.026162
14.191700 0.026379
14.201600 0.026695
14.211500 0.027124
14.221400 0.027639
14.231300 0.028133
14.241200 0.028447
14.251100 0.028462
14.261000 0.028137
14.270900 0.027508
14.280800 0.026682
14.290700 0.025792
14.300600 0.024933
14.310500 0.024142
14.320400 0.023425
14.330300 0.022795
14.340200 0.022266
14.350100 0.021840
14.360000 0.021507
14.369900 0.021255
14.379800 0.021067
14.389700 0.020906
14.399600 0.020714
14.409500 0.020437
14.419400 0.020062
14.429300 0.019624
14.439200 0.019180
14.449100 0.018782
14.459000 0.018455
14.468900 0.018195
14.478800 0.017975
14.488700 0.017763
14.498600 0.017539
14.508500 0.017303
14.518400 0.017060
14.528300 0.016823
14.538200 0.016602
14.548100 0.016404
14.558000 0.016237
14.567900 0.016113
14.577800 0.016038
14.587700 0.016005
14.597600 0.015996
14.607500 0.015985
14.617400 0.015957
14.627300 0.015907
14.637200 0.015831
14.647100 0.015722
14.657000 0.015575
14.666900 0.015401
14.676800 0.015227
14.686700 0.015080
14.696600 0.014975
14.706500 0.014924
14.716400 0.014930
14.726300 0.014997
14.736200 0.015114
14.746100 0.015264
14.756000 0.015420
14.765900 0.015556
14.775800 0.015663
14.785700 0.015749
14.795600 0.015812
14.805500 0.015824
14.815400 0.015748
14.825300 0.015579
14.835200 0.015349
14.845100 0.015106
14.855000 0.014898
14.864900 0.014770
14.874800 0.014767
14.884700 0.014914
14.894600 0.015207
14.904500 0.015601
14.914400 0.016006
14.924300 0.016297
14.934200 0.016365
14.944100 0.016192
14.954000 0.015871
14.963900 0.015538
14.973800 0.015281
14.983700 0.015117
14.993600 0.015011
15.003500 0.014912
15.013400 0.014789
15.023300 0.014645
15.033200 0.014504
15.043100 0.014387
15.053000 0.014295
15.062900 0.014219
15.072800 0.014149
15.082700 0.014081
15.092600 0.014010
15.102500 0.013924
15.112400 0.013796
15.122300 0.013602
15.132200 0.013343
15.142100 0.013044
15.152000 0.012731
15.161900 0.012418
15.171800 0.012096
15.181700 0.011750
15.191600 0.011388
15.201500 0.011039
15.211400 0.010730
15.221300 0.010473
15.231200 0.010269
15.241100 0.010119
15.251000 0.010030
15.260900 0.010004
15.270800 0.010035
15.280700 0.010110
15.290600 0.010224
15.300500 0.010379
15.310400 0.010572
15.320300 0.010791
15.330200 0.011015
15.340100 0.011217
15.350000 0.011363
15.359900 0.011428
15.369800 0.011406
15.379700 0.011327
15.389600 0.011229
15.399500 0.011132
15.409400 0.011038
15.419300 0.010933
15.429200 0.010802
15.439100 0.010639
15.449000 0.010452
15.458900 0.010256
15.468800 0.010067
15.478700 0.009899
15.488600 0.009756
15.498500 0.009644
15.508400 0.009568
15.518300 0.009530
15.528200 0.009529
15.538100 0.009563
15.548000 0.009637
15.557900 0.009757
15.567800 0.009915
15.577700 0.010080
15.587600 0.010199
15.597500 0.010219
15.607400 0.010129
15.617300 0.009966
15.627200 0.009790
15.637100 0.009648
15.647000 0.009559
15.656900 0.009516
15.666800 0.009494
15.676700 0.009463
15.686600 0.009407
15.696500 0.009331
15.706400 0.009267
15.716300 0.009253
15.726200 0.009315
15.736100 0.009451
15.746000 0.009630
15.755900 0.009802
15.765800 0.009910
15.775700 0.009924
15.785600 0.009843
15.795500 0.009700
15.805400 0.009537
15.815300 0.009389
15.825200 0.009264
15.835100 0.009156
15.845000 0.009063
15.854900 0.008995
15.864800 0.008969
15.874700 0.008984
15.884600 0.009015
15.894500 0.009025
15.904400 0.008984
15.914300 0.008895
15.924200 0.008791
15.934100 0.008712
15.944000 0.008675
15.953900 0.008662
15.963800 0.008618
15.973700 0.008493
15.983600 0.008277
15.993500 0.008009
16.003400 0.007734
16.013300 0.007477
16.023200 0.007240
16.033100 0.007021
16.043000 0.006825
16.052900 0.006670
16.062800 0.006570
16.072700 0.006526
16.082600 0.006523
16.092500 0.006530
16.102400 0.006508
16.112300 0.006431
16.122200 0.006300
16.132100 0.006139
16.142000 0.005975
16.151900 0.005827
16.161800 0.005699
16.171700 0.005590
16.181600 0.005496
16.191500 0.005418
16.201400 0.005359
16.211300 0.005326
16.221200 0.005323
16.231100 0.005356
16.241000 0.005420
16.250900 0.005510
16.260800 0.005621
16.270700 0.005749
16.280600 0.005885
16.290500 0.006007
16.300400 0.006094
16.310300 0.006145
16.320200 0.006187
16.330100 0.006247
16.340000 0.006338
16.349900 0.006450
16.359800 0.006565
16.369700 0.006669
16.379600 0.006752
16.389500 0.006805
16.399400 0.006821
16.409300 0.006809
16.419200 0.006784
16.429100 0.006751
16.439000 0.006698
16.448900 0.006608
16.458800 0.006484
16.468700 0.006336
16.478600 0.006180
16.488500 0.006026
16.498400 0.005882
16.508300 0.005753
16.518200 0.005640
16.528100 0.005544
16.538000 0.005470
16.547900 0.005420
16.557800 0.005390
16.567700 0.005372
16.577600 0.005352
16.587500 0.005324
16.597400 0.005295
16.607300 0.005276
16.617200 0.005275
16.627100 0.005287
16.637000 0.005298
16.646900 0.005298
16.656800 0.005278
16.666700 0.005245
16.676600 0.005208
16.686500 0.005181
16.696400 0.005175
16.706300 0.005191
16.716200 0.005226
16.726100 0.005269
16.736000 0.005302
16.745900 0.005308
16.755800 0.005282
16.765700 0.005236
16.775600 0.005185
16.785500 0.005127
16.795400 0.005048
16.805300 0.004936
16.815200 0.004786
16.825100 0.004605
16.835000 0.004407
16.844900 0.004214
16.854800 0.004042
16.864700 0.003902
16.874600 0.003794
16.884500 0.003715
16.894400 0.003654
16.904300 0.003605
16.914200 0.003561
16.924100 0.003525
16.934000 0.003503
16.943900 0.003498
16.953800 0.003514
16.963700 0.003549
16.973600 0.003599
16.983500 0.003654
16.993400 0.003701
17.003300 0.003728
17.013200 0.003729
17.023100 0.003709
17.033000 0.003676
17.042900 0.003638
17.052800 0.003596
17.062700 0.003551
17.072600 0.003507
17.082500 0.003471
17.092400 0.003450
17.102300 0.003448
17.112200 0.003468
17.122100 0.003513
17.132000 0.003582
17.141900 0.003672
17.151800 0.003780
17.161700 0.003903
17.171600 0.004041
17.181500 0.004200
17.191400 0.004395
17.201300 0.004645
17.211200 0.004969
17.221100 0.005383
17.231000 0.005886
17.240900 0.006454
17.250800 0.007028
17.260700 0.007516
17.270600 0.007809
17.280500 0.007832
17.290400 0.007601
17.300300 0.007211
17.310200 0.006770
17.320100 0.006346
17.330000 0.005968
17.339900 0.005649
17.349800 0.005390
17.359700 0.005193
17.369600 0.005058
17.379500 0.004988
17.389400 0.004980
17.399300 0.005022
17.409200 0.005077
17.419100 0.005088
17.429000 0.005010
17.438900 0.004838
17.448800 0.004610
17.458700 0.004376
17.468600 0.004173
17.478500 0.004016
17.488400 0.003908
17.498300 0.003840
17.508200 0.003799
17.518100 0.003773
17.528000 0.003754
17.537900 0.003741
17.547800 0.003737
17.557700 0.003740
17.567600 0.003740
17.577500 0.003721
17.587400 0.003678
17.597300 0.003618
17.607200 0.003553
17.617100 0.003496
17.627000 0.003449
17.636900 0.003411
17.646800 0.003377
17.656700 0.003348
17.666600 0.003327
17.676500 0.003318
17.686400 0.003321
17.696300 0.003329
17.706200 0.003328
17.716100 0.003308
17.726000 0.003268
17.735900 0.003209
17.745800 0.003140
17.755700 0.003070
17.765600 0.003011
17.775500 0.002973
17.785400 0.002966
17.795300 0.002992
17.805200 0.003046
17.815100 0.003118
17.825000 0.003193
17.834900 0.003257
17.844800 0.003304
17.854700 0.003327
17.864600 0.003314
17.874500 0.003251
17.884400 0.003136
17.894300 0.002989
17.904200 0.002836
17.914100 0.002698
17.924000 0.002581
17.933900 0.002485
17.943800 0.002403
17.953700 0.002329
17.963600 0.002263
17.973500 0.002204
17.983400 0.002153
17.993300 0.002112
18.003200 0.002082
18.013100 0.002063
18.023000 0.002056
18.032900 0.002061
18.042800 0.002075
18.052700 0.002098
18.062600 0.002129
18.072500 0.002165
18.082400 0.002201
18.092300 0.002233
18.102200 0.002254
18.112100 0.002256
18.122000 0.002238
18.131900 0.002206
18.141800 0.002170
18.151700 0.002139
18.161600 0.002116
18.171500 0.002101
18.181400 0.002092
18.191300 0.002085
18.201200 0.002082
18.211100 0.002083
18.221000 0.002091
18.230900 0.002106
18.240800 0.002127
18.250700 0.002152
18.260600 0.002179
18.270500 0.002200
18.280400 0.002209
18.290300 0.002208
18.300200 0.002202
18.310100 0.002199
18.320000 0.002201
18.329900 0.002203
18.339800 0.002200
18.349700 0.002186
18.359600 0.002163
18.369500 0.002136
18.379400 0.002114
18.389300 0.002104
18.399200 0.002107
18.409100 0.002125
18.419000 0.002155
18.428900 0.002192
18.438800 0.002225
18.448700 0.002241
18.458600 0.002232
18.468500 0.002201
18.478400 0.002158
18.488300 0.002112
18.498200 0.002071
18.508100 0.002036
18.518000 0.002009
18.527900 0.001986
18.537800 0.001963
18.547700 0.001942
18.557600 0.001927
18.567500 0.001923
18.577400 0.001930
18.587300 0.001945
18.597200 0.001958
18.607100 0.001957
18.617000 0.001936
18.626900 0.001898
18.636800 0.001854
18.646700 0.001814
18.656600 0.001785
18.666500 0.001769
18.676400 0.001765
18.686300 0.001769
18.696200 0.001779
18.706100 0.001795
18.716000 0.001815
18.725900 0.001837
18.735800 0.001856
18.745700 0.001863
18.755600 0.001851
18.765500 0.001817
18.775400 0.001766
18.785300 0.001707
18.795200 0.001648
18.805100 0.001592
18.815000 0.001543
18.824900 0.001499
18.834800 0.001462
18.844700 0.001431
18.854600 0.001405
18.864500 0.001384
18.874400 0.001368
18.884300 0.001356
18.894200 0.001350
18.904100 0.001348
18.914000 0.001351
18.923900 0.001358
18.933800 0.001369
18.943700 0.001381
18.953600 0.001392
18.963500 0.001400
18.973400 0.001405
18.983300 0.001408
18.993200 0.001407
19.003100 0.001402
19.013000 0.001390
19.022900 0.001371
19.032800 0.001347
19.042700 0.001320
19.052600 0.001293
19.062500 0.001268
19.072400 0.001247
19.082300 0.001229
19.092200 0.001213
19.102100 0.001200
19.112000 0.001189
19.121900 0.001178
19.131800 0.001169
19.141700 0.001159
19.151600 0.001151
19.161500 0.001145
19.171400 0.001141
19.181300 0.001140
19.191200 0.001140
19.201100 0.001139
19.211000 0.001137
19.220900 0.001134
19.230800 0.001132
19.240700 0.001131
19.250600 0.001133
19.260500 0.001137
19.270400 0.001143
19.280300 0.001148
19.290200 0.001152
19.300100 0.001152
19.310000 0.001149
19.319900 0.001144
19.329800 0.001138
19.339700 0.001132
19.349600 0.001125
19.359500 0.001118
19.369400 0.001108
19.379300 0.001096
19.389200 0.001084
19.399100 0.001074
19.409000 0.001067
19.418900 0.001063
19.428800 0.001063
19.438700 0.001067
19.448600 0.001074
19.458500 0.001084
19.468400 0.001092
19.478300 0.001100
19.488200 0.001105
19.498100 0.001107
19.508000 0.001105
19.517900 0.001100
19.527800 0.001094
19.537700 0.001088
19.547600 0.001081
19.557500 0.001072
19.567400 0.001062
19.577300 0.001049
19.587200 0.001034
19.597100 0.001019
19.607000 0.001005
19.616900 0.000994
19.626800 0.000985
19.636700 0.000977
19.646600 0.000971
19.656500 0.000967
19.666400 0.000966
19.676300 0.000967
19.686200 0.000970
19.696100 0.000974
19.706000 0.000978
19.715900 0.000981
19.725800 0.000981
19.735700 0.000979
19.745600 0.000976
19.755500 0.000972
19.765400 0.000967
19.775300 0.000961
19.785200 0.000955
19.795100 0.000948
19.805000 0.000940
19.814900 0.000932
19.824800 0.000924
19.834700 0.000917
19.844600 0.000910
19.854500 0.000904
19.864400 0.000898
19.874300 0.000891
19.884200 0.000884
19.894100 0.000878
19.904000 0.000872
19.913900 0.000868
19.923800 0.000864
19.933700 0.000861
19.943600 0.000860
19.953500 0.000859
19.963400 0.000860
19.973300 0.000862
19.983200 0.000865
19.993100 0.000866
20.003000 0.000866
20.012900 0.000864
20.022800 0.000860
20.032700 0.000856
20.042600 0.000854
20.052500 0.000853
20.062400 0.000854
20.072300 0.000858
20.082200 0.000865
20.092100 0.000872
20.102000 0.000878
20.111900 0.000881
20.121800 0.000878
20.131700 0.000869
20.141600 0.000856
20.151500 0.000843
20.161400 0.000830
20.171300 0.000819
20.181200 0.000810
20.191100 0.000803
20.201000 0.000797
20.210900 0.000792
20.220800 0.000788
20.230700 0.000784
20.240600 0.000780
20.250500 0.000777
20.260400 0.000774
20.270300 0.000772
20.280200 0.000771
20.290100 0.000769
20.300000 0.000768
20.309900 0.000767
20.319800 0.000765
20.329700 0.000763
20.339600 0.000761
20.349500 0.000759
20.359400 0.000756
20.369300 0.000754
20.379200 0.000752
20.389100 0.000750
20.399000 0.000747
20.408900 0.000745
20.418800 0.000744
20.428700 0.000742
20.438600 0.000741
20.448500 0.000741
20.458400 0.000741
20.468300 0.000741
20.478200 0.000742
20.488100 0.000742
20.498000 0.000741
20.507900 0.000740
20.517800 0.000739
20.527700 0.000737
20.537600 0.000734
20.547500 0.000731
20.557400 0.000728
20.567300 0.000725
20.577200 0.000722
20.587100 0.000720
20.597000 0.000717
20.606900 0.000716
20.616800 0.000714
20.626700 0.000713
20.636600 0.000711
20.646500 0.000709
20.656400 0.000706
20.666300 0.000704
20.676200 0.000702
20.686100 0.000700
20.696000 0.000698
20.705900 0.000696
20.715800 0.000695
20.725700 0.000693
20.735600 0.000692
20.745500 0.000691
20.755400 0.000690
20.765300 0.000689
20.775200 0.000688
20.785100 0.000687
20.795000 0.000686
20.804900 0.000685
20.814800 0.000684
20.824700 0.000683
20.834600 0.000682
20.844500 0.000682
20.854400 0.000681
20.864300 0.000681
20.874200 0.000681
20.884100 0.000680
20.894000 0.000680
20.903900 0.000679
20.913800 0.000678
20.923700 0.000676
20.933600 0.000675
20.943500 0.000673
20.953400 0.000671
20.963300 0.000669
20.973200 0.000667
20.983100 0.000666
20.993000 0.000664
21.002900 0.000663
21.012800 0.000662
21.022700 0.000661
21.032600 0.000659
21.042500 0.000658
21.052400 0.000657
21.062300 0.000657
21.072200 0.000656
21.082100 0.000656
21.092000 0.000656
21.101900 0.000656
21.111800 0.000656
21.121700 0.000656
21.131600 0.000656
21.141500 0.000656
21.151400 0.000656
21.161300 0.000655
21.171200 0.000653
21.181100 0.000652
21.191000 0.000651
21.200900 0.000651
21.210800 0.000650
21.220700 0.000649
21.230600 0.000648
21.240500 0.000647
21.250400 0.000645
21.260300 0.000644
21.270200 0.000642
21.280100 0.000641
21.290000 0.000641
21.299900 0.000640
21.309800 0.000639
21.319700 0.000638
21.329600 0.000637
21.339500 0.000636
21.349400 0.000635
21.359300 0.000634
21.369200 0.000633
21.379100 0.000633
21.389000 0.000632
21.398900 0.000632
21.408800 0.000632
21.418700 0.000631
21.428600 0.000629
21.438500 0.000628
21.448400 0.000626
21.458300 0.000624
21.468200 0.000623
21.478100 0.000622
21.488000 0.000621
21.497900 0.000621
21.507800 0.000621
21.517700 0.000622
21.527600 0.000622
21.537500 0.000622
21.547400 0.000621
21.557300 0.000621
21.567200 0.000619
21.577100 0.000617
21.587000 0.000615
21.596900 0.000612
21.606800 0.000610
21.616700 0.000608
21.626600 0.000606
21.636500 0.000605
21.646400 0.000603
21.656300 0.000602
21.666200 0.000600
21.676100 0.000599
21.686000 0.000598
21.695900 0.000597
21.705800 0.000597
21.715700 0.000596
21.725600 0.000595
21.735500 0.000594
21.745400 0.000592
21.755300 0.000591
21.765200 0.000590
21.775100 0.000588
21.785000 0.000587
21.794900 0.000586
21.804800 0.000585
21.814700 0.000584
21.824600 0.000584
21.834500 0.000583
21.844400 0.000582
21.854300 0.000582
21.864200 0.000581
21.874100 0.000581
21.884000 0.000581
21.893900 0.000581
21.903800 0.000580
21.913700 0.000579
21.923600 0.000579
21.933500 0.000577
21.943400 0.000576
21.953300 0.000575
21.963200 0.000574
21.973100 0.000573
21.983000 0.000572
21.992900 0.000572
22.002800 0.000571
22.012700 0.000570
22.022600 0.000569
22.032500 0.000568
22.042400 0.000567
22.052300 0.000566
22.062200 0.000565
22.072100 0.000564
22.082000 0.000563
22.091900 0.000562
22.101800 0.000562
22.111700 0.000561
22.121600 0.000560
22.131500 0.000559
22.141400 0.000558
22.151300 0.000557
22.161200 0.000556
22.171100 0.000555
22.181000 0.000554
22.190900 0.000553
22.200800 0.000553
22.210700 0.000552
22.220600 0.000551
22.230500 0.000550
22.240400 0.000550
22.250300 0.000549
22.260200 0.000548
22.270100 0.000548
22.280000 0.000547
22.289900 0.000546
22.299800 0.000546
22.309700 0.000545
22.319600 0.000545
22.329500 0.000544
22.339400 0.000544
22.349300 0.000543
22.359200 0.000543
22.369100 0.000542
22.379000 0.000542
22.388900 0.000541
22.398800 0.000541
22.408700 0.000540
22.418600 0.000540
22.428500 0.000540
22.438400 0.000539
22.448300 0.000539
22.458200 0.000538
22.468100 0.000537
22.478000 0.000536
22.487900 0.000536
22.497800 0.000535
22.507700 0.000535
22.517600 0.000534
22.527500 0.000534
22.537400 0.000533
22.547300 0.000532
22.557200 0.000531
22.567100 0.000529
22.577000 0.000528
22.586900 0.000527
22.596800 0.000527
22.606700 0.000526
22.616600 0.000525
22.626500 0.000524
22.636400 0.000523
22.646300 0.000523
22.656200 0.000522
22.666100 0.000521
22.676000 0.000521
22.685900 0.000520
22.695800 0.000520
22.705700 0.000519
22.715600 0.000519
22.725500 0.000518
22.735400 0.000518
22.745300 0.000517
22.755200 0.000517
22.765100 0.000516
22.775000 0.000516
22.784900 0.000515
22.794800 0.000514
22.804700 0.000514
22.814600 0.000514
22.824500 0.000513
22.834400 0.000513
22.844300 0.000512
22.854200 0.000511
22.864100 0.000511
22.874000 0.000510
22.883900 0.000509
22.893800 0.000509
22.903700 0.000508
22.913600 0.000508
22.923500 0.000507
22.933400 0.000507
22.943300 0.000506
22.953200 0.000506
22.963100 0.000505
22.973000 0.000504
22.982900 0.000503
22.992800 0.000503
23.002700 0.000502
23.012600 0.000501
23.022500 0.000501
23.032400 0.000500
23.042300 0.000499
23.052200 0.000499
23.062100 0.000498
23.072000 0.000498
23.081900 0.000497
23.091800 0.000497
23.101700 0.000496
23.111600 0.000496
23.121500 0.000495
23.131400 0.000494
23.141300 0.000494
23.151200 0.000493
23.161100 0.000493
23.171000 0.000492
23.180900 0.000492
23.190800 0.000491
23.200700 0.000490
23.210600 0.000490
23.220500 0.000489
23.230400 0.000488
23.240300 0.000488
23.250200 0.000487
23.260100 0.000486
23.270000 0.000486
23.279900 0.000485
23.289800 0.000485
23.299700 0.000484
23.309600 0.000484
23.319500 0.000484
23.329400 0.000483
23.339300 0.000483
23.349200 0.000483
23.359100 0.000482
23.369000 0.000482
23.378900 0.000481
23.388800 0.000481
23.398700 0.000481
23.408600 0.000480
23.418500 0.000480
23.428400 0.000479
23.438300 0.000478
23.448200 0.000477
23.458100 0.000476
23.468000 0.000476
23.477900 0.000475
23.487800 0.000474
23.497700 0.000473
23.507600 0.000473
23.517500 0.000472
23.527400 0.000472
23.537300 0.000472
23.547200 0.000471
23.557100 0.000471
23.567000 0.000470
23.576900 0.000470
23.586800 0.000469
23.596700 0.000469
23.606600 0.000468
23.616500 0.000467
23.626400 0.000466
23.636300 0.000466
23.646200 0.000465
23.656100 0.000464
23.666000 0.000464
23.675900 0.000463
23.685800 0.000463
23.695700 0.000462
23.705600 0.000462
23.715500 0.000461
23.725400 0.000461
23.735300 0.000460
23.745200 0.000460
23.755100 0.000459
23.765000 0.000459
23.774900 0.000458
23.784800 0.000458
23.794700 0.000457
23.804600 0.000457
23.814500 0.000456
23.824400 0.000456
23.834300 0.000455
23.844200 0.000455
23.854100 0.000454
23.864000 0.000453
23.873900 0.000453
23.883800 0.000452
23.893700 0.000452
23.903600 0.000451
23.913500 0.000451
23.923400 0.000450
23.933300 0.000450
23.943200 0.000449
23.953100 0.000449
23.963000 0.000448
23.972900 0.000448
23.982800 0.000447
23.992700 0.000447
24.002600 0.000447
24.012500 0.000446
24.022400 0.000446
24.032300 0.000445
24.042200 0.000445
24.052100 0.000444
24.062000 0.000444
24.071900 0.000443
24.081800 0.000443
24.091700 0.000443
24.101600 0.000442
24.111500 0.000442
24.121400 0.000441
24.131300 0.000441
24.141200 0.000440
24.151100 0.000440
24.161000 0.000439
24.170900 0.000439
24.180800 0.000438
24.190700 0.000438
24.200600 0.000438
24.210500 0.000437
24.220400 0.000437
24.230300 0.000436
24.240200 0.000436
24.250100 0.000435
24.260000 0.000435
24.269900 0.000434
24.279800 0.000434
24.289700 0.000433
24.299600 0.000433
24.309500 0.000432
24.319400 0.000432
24.329300 0.000431
24.339200 0.000431
24.349100 0.000430
24.359000 0.000430
24.368900 0.000429
24.378800 0.000429
24.388700 0.000429
24.398600 0.000428
24.408500 0.000428
24.418400 0.000427
24.428300 0.000427
24.438200 0.000427
24.448100 0.000426
24.458000 0.000426
24.467900 0.000425
24.477800 0.000425
24.487700 0.000424
24.497600 0.000424
24.507500 0.000423
24.517400 0.000423
24.527300 0.000422
24.537200 0.000422
24.547100 0.000422
24.557000 0.000421
24.566900 0.000421
24.576800 0.000420
24.586700 0.000420
24.596600 0.000419
24.606500 0.000419
24.616400 0.000418
24.626300 0.000418
24.636200 0.000418
24.646100 0.000417
24.656000 0.000417
24.665900 0.000416
24.675800 0.000416
24.685700 0.000416
24.695600 0.000415
24.705500 0.000415
24.715400 0.000414
24.725300 0.000414
24.735200 0.000414
24.745100 0.000413
24.755000 0.000413
24.764900 0.000412
24.774800 0.000412
24.784700 0.000412
24.794600 0.000411
24.804500 0.000411
24.814400 0.000410
24.824300 0.000410
24.834200 0.000410
24.844100 0.000409
24.854000 0.000409
24.863900 0.000408
24.873800 0.000408
24.883700 0.000408
24.893600 0.000407
24.903500 0.000407
24.913400 0.000406
24.923300 0.000406
24.933200 0.000406
24.943100 0.000405
24.953000 0.000405
24.962900 0.000405
24.972800 0.000404
24.982700 0.000404
24.992600 0.000403
25.002500 0.000403
25.012400 0.000402
25.022300 0.000402
25.032200 0.000402
25.042100 0.000401
25.052000 0.000401
25.061900 0.000400
25.071800 0.000400
25.081700 0.000399
25.091600 0.000399
25.101500 0.000399
25.111400 0.000398
25.121300 0.000398
25.131200 0.000397
25.141100 0.000397
25.151000 0.000397
25.160900 0.000396
25.170800 0.000396
25.180700 0.000396
25.190600 0.000395
25.200500 0.000395
25.210400 0.000394
25.220300 0.000394
25.230200 0.000394
25.240100 0.000393
25.250000 0.000393
25.259900 0.000392
25.269800 0.000392
25.279700 0.000392
25.289600 0.000391
25.299500 0.000391
25.309400 0.000391
25.319300 0.000390
25.329200 0.000390
25.339100 0.000389
25.349000 0.000389
25.358900 0.000389
25.368800 0.000388
25.378700 0.000388
25.388600 0.000388
25.398500 0.000387
25.408400 0.000387
25.418300 0.000386
25.428200 0.000386
25.438100 0.000386
25.448000 0.000385
25.457900 0.000385
25.467800 0.000385
25.477700 0.000384
25.487600 0.000384
25.497500 0.000383
25.507400 0.000383
25.517300 0.000383
25.527200 0.000382
25.537100 0.000382
25.547000 0.000382
25.556900 0.000381
25.566800 0.000381
25.576700 0.000380
25.586600 0.000380
25.596500 0.000380
25.606400 0.000379
25.616300 0.000379
25.626200 0.000379
25.636100 0.000378
25.646000 0.000378
25.655900 0.000377
25.665800 0.000377
25.675700 0.000377
25.685600 0.000376
25.695500 0.000376
25.705400 0.000376
25.715300 0.000375
25.725200 0.000375
25.735100 0.000375
25.745000 0.000374
25.754900 0.000374
25.764800 0.000374
25.774700 0.000373
25.784600 0.000373
25.794500 0.000373
25.804400 0.000372
25.814300 0.000372
25.824200 0.000371
25.834100 0.000371
25.844000 0.000371
25.853900 0.000370
25.863800 0.000370
25.873700 0.000370
25.883600 0.000369
25.893500 0.000369
25.903400 0.000369
25.913300 0.000368
25.923200 0.000368
25.933100 0.000368
25.943000 0.000367
25.952900 0.000367
25.962800 0.000367
25.972700 0.000366
25.982600 0.000366
25.992500 0.000366
26.002400 0.000365
26.012300 0.000365
26.022200 0.000365
26.032100 0.000364
26.042000 0.000364
26.051900 0.000364
26.061800 0.000363
26.071700 0.000363
26.081600 0.000363
26.091500 0.000362
26.101400 0.000362
26.111300 0.000362
26.121200 0.000361
26.131100 0.000361
26.141000 0.000361
26.150900 0.000360
26.160800 0.000360
26.170700 0.000360
26.180600 0.000359
26.190500 0.000359
26.200400 0.000359
26.210300 0.000358
26.220200 0.000358
26.230100 0.000358
26.240000 0.000357
26.249900 0.000357
26.259800 0.000357
26.269700 0.000356
26.279600 0.000356
26.289500 0.000356
26.299400 0.000355
26.309300 0.000355
26.319200 0.000355
26.329100 0.000354
26.339000 0.000354
26.348900 0.000354
26.358800 0.000353
26.368700 0.000353
26.378600 0.000353
26.388500 0.000352
26.398400 0.000352
26.408300 0.000352
26.418200 0.000351
26.428100 0.000351
26.438000 0.000351
26.447900 0.000351
26.457800 0.000350
26.467700 0.000350
26.477600 0.000350
26.487500 0.000349
26.497400 0.000349
26.507300 0.000349
26.517200 0.000348
26.527100 0.000348
26.537000 0.000348
26.546900 0.000347
26.556800 0.000347
26.566700 0.000347
26.576600 0.000346
26.586500 0.000346
26.596400 0.000346
26.606300 0.000346
26.616200 0.000345
26.626100 0.000345
26.636000 0.000345
26.645900 0.000344
26.655800 0.000344
26.665700 0.000344
26.675600 0.000343
26.685500 0.000343
26.695400 0.000343
26.705300 0.000342
26.715200 0.000342
26.725100 0.000342
26.735000 0.000342
26.744900 0.000341
26.754800 0.000341
26.764700 0.000341
26.774600 0.000340
26.784500 0.000340
26.794400 0.000340
26.804300 0.000339
26.814200 0.000339
26.824100 0.000339
26.834000 0.000339
26.843900 0.000338
26.853800 0.000338
26.863700 0.000338
26.873600 0.000337
26.883500 0.000337
26.893400 0.000337
26.903300 0.000336
26.913200 0.000336
26.923100 0.000336
26.933000 0.000336
26.942900 0.000335
26.952800 0.000335
26.962700 0.000335
26.972600 0.000334
26.982500 0.000334
26.992400 0.000334
27.002300 0.000334
27.012200 0.000333
27.022100 0.000333
27.032000 0.000333
27.041900 0.000332
27.051800 0.000332
27.061700 0.000332
27.071600 0.000331
27.081500 0.000331
27.091400 0.000331
27.101300 0.000331
27.111200 0.000330
27.121100 0.000330
27.131000 0.000330
27.140900 0.000329
27.150800 0.000329
27.160700 0.000329
27.170600 0.000329
27.180500 0.000328
27.190400 0.000328
27.200300 0.000328
27.210200 0.000327
27.220100 0.000327
27.230000 0.000327
27.239900 0.000327
27.249800 0.000326
27.259700 0.000326
27.269600 0.000326
27.279500 0.000325
27.289400 0.000325
27.299300 0.000325
27.309200 0.000325
27.319100 0.000324
27.329000 0.000324
27.338900 0.000324
27.348800 0.000324
27.358700 0.000323
27.368600 0.000323
27.378500 0.000323
27.388400 0.000322
27.398300 0.000322
27.408200 0.000322
27.418100 0.000322
27.428000 0.000321
27.437900 0.000321
27.447800 0.000321
27.457700 0.000320
27.467600 0.000320
27.477500 0.000320
27.487400 0.000320
27.497300 0.000319
27.507200 0.000319
27.517100 0.000319
27.527000 0.000319
27.536900 0.000318
27.546800 0.000318
27.556700 0.000318
27.566600 0.000318
27.576500 0.000317
27.586400 0.000317
27.596300 0.000317
27.606200 0.000316
27.616100 0.000316
27.626000 0.000316
27.635900 0.000316
27.645800 0.000315
27.655700 0.000315
27.665600 0.000315
27.675500 0.000315
27.685400 0.000314
27.695300 0.000314
27.705200 0.000314
27.715100 0.000314
27.725000 0.000313
27.734900 0.000313
27.744800 0.000313
27.754700 0.000312
27.764600 0.000312
27.774500 0.000312
27.784400 0.000312
27.794300 0.000311
27.804200 0.000311
27.814100 0.000311
27.824000 0.000311
27.833900 0.000310
27.843800 0.000310
27.853700 0.000310
27.863600 0.000310
27.873500 0.000309
27.883400 0.000309
27.893300 0.000309
27.903200 0.000309
27.913100 0.000308
27.923000 0.000308
27.932900 0.000308
27.942800 0.000308
27.952700 0.000307
27.962600 0.000307
27.972500 0.000307
27.982400 0.000306
27.992300 0.000306
28.002200 0.000306
28.012100 0.000306
28.022000 0.000305
28.031900 0.000305
28.041800 0.000305
28.051700 0.000305
28.061600 0.000304
28.071500 0.000304
28.081400 0.000304
28.091300 0.000304
28.101200 0.000303
28.111100 0.000303
28.121000 0.000303
28.130900 0.000303
28.140800 0.000302
28.150700 0.000302
28.160600 0.000302
28.170500 0.000302
28.180400 0.000301
28.190300 0.000301
28.200200 0.000301
28.210100 0.000301
28.220000 0.000300
28.229900 0.000300
28.239800 0.000300
28.249700 0.000300
28.259600 0.000299
28.269500 0.000299
28.279400 0.000299
28.289300 0.000299
28.299200 0.000299
28.309100 0.000298
28.319000 0.000298
28.328900 0.000298
28.338800 0.000298
28.348700 0.000297
28.358600 0.000297
28.368500 0.000297
28.378400 0.000297
28.388300 0.000296
28.398200 0.000296
28.408100 0.000296
28.418000 0.000296
28.427900 0.000295
28.437800 0.000295
28.447700 0.000295
28.457600 0.000295
28.467500 0.000294
28.477400 0.000294
28.487300 0.000294
28.497200 0.000294
28.507100 0.000293
28.517000 0.000293
28.526900 0.000293
28.536800 0.000293
28.546700 0.000293
28.556600 0.000292
28.566500 0.000292
28.576400 0.000292
28.586300 0.000292
28.596200 0.000291
28.606100 0.000291
28.616000 0.000291
28.625900 0.000291
28.635800 0.000290
28.645700 0.000290
28.655600 0.000290
28.665500 0.000290
28.675400 0.000289
28.685300 0.000289
28.695200 0.000289
28.705100 0.000289
28.715000 0.000289
28.724900 0.000288
28.734800 0.000288
28.744700 0.000288
28.754600 0.000288
28.764500 0.000287
28.774400 0.000287
28.784300 0.000287
28.794200 0.000287
28.804100 0.000286
28.814000 0.000286
28.823900 0.000286
28.833800 0.000286
28.843700 0.000286
28.853600 0.000285
28.863500 0.000285
28.873400 0.000285
28.883300 0.000285
28.893200 0.000284
28.903100 0.000284
28.913000 0.000284
28.922900 0.000284
28.932800 0.000284
28.942700 0.000283
28.952600 0.000283
28.962500 0.000283
28.972400 0.000283
28.982300 0.000282
28.992200 0.000282
29.002100 0.000282
29.012000 0.000282
29.021900 0.000281
29.031800 0.000281
29.041700 0.000281
29.051600 0.000281
29.061500 0.000281
29.071400 0.000280
29.081300 0.000280
29.091200 0.000280
29.101100 0.000280
29.111000 0.000279
29.120900 0.000279
29.130800 0.000279
29.140700 0.000279
29.150600 0.000279
29.160500 0.000278
29.170400 0.000278
29.180300 0.000278
29.190200 0.000278
29.200100 0.000278
29.210000 0.000277
29.219900 0.000277
29.229800 0.000277
29.239700 0.000277
29.249600 0.000276
29.259500 0.000276
29.269400 0.000276
29.279300 0.000276
29.289200 0.000276
29.299100 0.000275
29.309000 0.000275
29.318900 0.000275
29.328800 0.000275
29.338700 0.000275
29.348600 0.000274
29.358500 0.000274
29.368400 0.000274
29.378300 0.000274
29.388200 0.000273
29.398100 0.000273
29.408000 0.000273
29.417900 0.000273
29.427800 0.000273
29.437700 0.000272
29.447600 0.000272
29.457500 0.000272
29.467400 0.000272
29.477300 0.000272
29.487200 0.000271
29.497100 0.000271
29.507000 0.000271
29.516900 0.000271
29.526800 0.000270
29.536700 0.000270
29.546600 0.000270
29.556500 0.000270
29.566400 0.000270
29.576300 0.000269
29.586200 0.000269
29.596100 0.000269
29.606000 0.000269
29.615900 0.000269
29.625800 0.000268
29.635700 0.000268
29.645600 0.000268
29.655500 0.000268
29.665400 0.000268
29.675300 0.000267
29.685200 0.000267
29.695100 0.000267
29.705000 0.000267
29.714900 0.000267
29.724800 0.000266
29.734700 0.000266
29.744600 0.000266
29.754500 0.000266
29.764400 0.000266
29.774300 0.000265
29.784200 0.000265
29.794100 0.000265
29.804000 0.000265
29.813900 0.000265
29.823800 0.000264
29.833700 0.000264
29.843600 0.000264
29.853500 0.000264
29.863400 0.000264
29.873300 0.000263
29.883200 0.000263
29.893100 0.000263
29.903000 0.000263
29.912900 0.000263
29.922800 0.000262
29.932700 0.000262
29.942600 0.000262
29.952500 0.000262
29.962400 0.000262
29.972300 0.000261
29.982200 0.000261
29.992100 0.000261
30.002000 0.000261
30.011900 0.000261
30.021800 0.000260
30.031700 0.000260
30.041600 0.000260
30.051500 0.000260
30.061400 0.000260
30.071300 0.000259
30.081200 0.000259
30.091100 0.000259
30.101000 0.000259
30.110900 0.000259
30.120800 0.000258
30.130700 0.000258
30.140600 0.000258
30.150500 0.000258
30.160400 0.000258
30.170300 0.000257
30.180200 0.000257
30.190100 0.000257
30.200000 0.000257
30.209900 0.000257
30.219800 0.000256
30.229700 0.000256
30.239600 0.000256
30.249500 0.000256
30.259400 0.000256
30.269300 0.000256
30.279200 0.000255
30.289100 0.000255
30.299000 0.000255
30.308900 0.000255
30.318800 0.000255
30.328700 0.000254
30.338600 0.000254
30.348500 0.000254
30.358400 0.000254
30.368300 0.000254
30.378200 0.000253
30.388100 0.000253
30.398000 0.000253
30.407900 0.000253
30.417800 0.000253
30.427700 0.000252
30.437600 0.000252
30.447500 0.000252
30.457400 0.000252
30.467300 0.000252
30.477200 0.000252
30.487100 0.000251
30.497000 0.000251
30.506900 0.000251
30.516800 0.000251
30.526700 0.000251
30.536600 0.000250
30.546500 0.000250
30.556400 0.000250
30.566300 0.000250
30.576200 0.000250
30.586100 0.000250
30.596000 0.000249
30.605900 0.000249
30.615800 0.000249
30.625700 0.000249
30.635600 0.000249
30.645500 0.000248
30.655400 0.000248
30.665300 0.000248
30.675200 0.000248
30.685100 0.000248
30.695000 0.000248
30.704900 0.000247
30.714800 0.000247
30.724700 0.000247
30.734600 0.000247
30.744500 0.000247
30.754400 0.000246
30.764300 0.000246
30.774200 0.000246
30.784100 0.000246
30.794000 0.000246
30.803900 0.000246
30.813800 0.000245
30.823700 0.000245
30.833600 0.000245
30.843500 0.000245
30.853400 0.000245
30.863300 0.000244
30.873200 0.000244
30.883100 0.000244
30.893000 0.000244
30.902900 0.000244
30.912800 0.000244
30.922700 0.000243
30.932600 0.000243
30.942500 0.000243
30.952400 0.000243
30.962300 0.000243
30.972200 0.000243
30.982100 0.000242
30.992000 0.000242
31.001900 0.000242
31.011800 0.000242
31.021700 0.000242
31.031600 0.000241
31.041500 0.000241
31.051400 0.000241
31.061300 0.000241
31.071200 0.000241
31.081100 0.000241
31.091000 0.000240
31.100900 0.000240
31.110800 0.000240
31.120700 0.000240
31.130600 0.000240
31.140500 0.000240
31.150400 0.000239
31.160300 0.000239
31.170200 0.000239
31.180100 0.000239
31.190000 0.000239
31.199900 0.000239
31.209800 0.000238
31.219700 0.000238
31.229600 0.000238
31.239500 0.000238
31.249400 0.000238
31.259300 0.000237
31.269200 0.000237
31.279100 0.000237
31.289000 0.000237
31.298900 0.000237
31.308800 0.000237
31.318700 0.000236
31.328600 0.000236
31.338500 0.000236
31.348400 0.000236
31.358300 0.000236
31.368200 0.000236
31.378100 0.000235
31.388000 0.000235
31.397900 0.000235
31.407800 0.000235
31.417700 0.000235
31.427600 0.000235
31.437500 0.000234
31.447400 0.000234
31.457300 0.000234
31.467200 0.000234
31.477100 0.000234
31.487000 0.000234
31.496900 0.000233
31.506800 0.000233
31.516700 0.000233
31.526600 0.000233
31.536500 0.000233
31.546400 0.000233
31.556300 0.000232
31.566200 0.000232
31.576100 0.000232
31.586000 0.000232
31.595900 0.000232
31.605800 0.000232
31.615700 0.000231
31.625600 0.000231
31.635500 0.000231
31.645400 0.000231
31.655300 0.000231
31.665200 0.000231
31.675100 0.000231
31.685000 0.000230
31.694900 0.000230
31.704800 0.000230
31.714700 0.000230
31.724600 0.000230
31.734500 0.000230
31.744400 0.000229
31.754300 0.000229
31.764200 0.000229
31.774100 0.000229
31.784000 0.000229
31.793900 0.000229
31.803800 0.000228
31.813700 0.000228
31.823600 0.000228
31.833500 0.000228
31.843400 0.000228
31.853300 0.000228
31.863200 0.000227
31.873100 0.000227
31.883000 0.000227
31.892900 0.000227
31.902800 0.000227
31.912700 0.000227
31.922600 0.000227
31.932500 0.000226
31.942400 0.000226
31.952300 0.000226
31.962200 0.000226
31.972100 0.000226
31.982000 0.000226
31.991900 0.000225
32.001800 0.000225
32.011700 0.000225
32.021600 0.000225
32.031500 0.000225
32.041400 0.000225
32.051300 0.000224
32.061200 0.000224
32.071100 0.000224
32.081000 0.000224
32.090900 0.000224
32.100800 0.000224
32.110700 0.000224
32.120600 0.000223
32.130500 0.000223
32.140400 0.000223
32.150300 0.000223
32.160200 0.000223
32.170100 0.000223
32.180000 0.000222
32.189900 0.000222
32.199800 0.000222
32.209700 0.000222
32.219600 0.000222
32.229500 0.000222
32.239400 0.000222
32.249300 0.000221
32.259200 0.000221
32.269100 0.000221
32.279000 0.000221
32.288900 0.000221
32.298800 0.000221
32.308700 0.000220
32.318600 0.000220
32.328500 0.000220
32.338400 0.000220
32.348300 0.000220
32.358200 0.000220
32.368100 0.000220
32.378000 0.000219
32.387900 0.000219
32.397800 0.000219
32.407700 0.000219
32.417600 0.000219
32.427500 0.000219
32.437400 0.000219
32.447300 0.000218
32.457200 0.000218
32.467100 0.000218
32.477000 0.000218
32.486900 0.000218
32.496800 0.000218
32.506700 0.000217
32.516600 0.000217
32.526500 0.000217
32.536400 0.000217
32.546300 0.000217
32.556200 0.000217
32.566100 0.000217
32.576000 0.000216
32.585900 0.000216
32.595800 0.000216
32.605700 0.000216
32.615600 0.000216
32.625500 0.000216
32.635400 0.000216
32.645300 0.000215
32.655200 0.000215
32.665100 0.000215
32.675000 0.000215
32.684900 0.000215
32.694800 0.000215
32.704700 0.000215
32.714600 0.000214
32.724500 0.000214
32.734400 0.000214
32.744300 0.000214
32.754200 0.000214
32.764100 0.000214
32.774000 0.000214
32.783900 0.000213
32.793800 0.000213
32.803700 0.000213
32.813600 0.000213
32.823500 0.000213
32.833400 0.000213
32.843300 0.000213
32.853200 0.000212
32.863100 0.000212
32.873000 0.000212
32.882900 0.000212
32.892800 0.000212
32.902700 0.000212
32.912600 0.000212
32.922500 0.000211
32.932400 0.000211
32.942300 0.000211
32.952200 0.000211
32.962100 0.000211
32.972000 0.000211
32.981900 0.000211
32.991800 0.000210
33.001700 0.000210
33.011600 0.000210
33.021500 0.000210
33.031400 0.000210
33.041300 0.000210
33.051200 0.000210
33.061100 0.000209
33.071000 0.000209
33.080900 0.000209
33.090800 0.000209
33.100700 0.000209
33.110600 0.000209
33.120500 0.000209
33.130400 0.000208
33.140300 0.000208
33.150200 0.000208
33.160100 0.000208
33.170000 0.000208
33.179900 0.000208
33.189800 0.000208
33.199700 0.000207
33.209600 0.000207
33.219500 0.000207
33.229400 0.000207
33.239300 0.000207
33.249200 0.000207
33.259100 0.000207
33.269000 0.000207
33.278900 0.000206
33.288800 0.000206
33.298700 0.000206
33.308600 0.000206
33.318500 0.000206
33.328400 0.000206
33.338300 0.000206
33.348200 0.000205
33.358100 0.000205
33.368000 0.000205
33.377900 0.000205
33.387800 0.000205
33.397700 0.000205
33.407600 0.000205
33.417500 0.000204
33.427400 0.000204
33.437300 0.000204
33.447200 0.000204
33.457100 0.000204
33.467000 0.000204
33.476900 0.000204
33.486800 0.000204
33.496700 0.000203
33.506600 0.000203
33.516500 0.000203
33.526400 0.000203
33.536300 0.000203
33.546200 0.000203
33.556100 0.000203
33.566000 0.000202
33.575900 0.000202
33.585800 0.000202
33.595700 0.000202
33.605600 0.000202
33.615500 0.000202
33.625400 0.000202
33.635300 0.000202
33.645200 0.000201
33.655100 0.000201
33.665000 0.000201
33.674900 0.000201
33.684800 0.000201
33.694700 0.000201
33.704600 0.000201
33.714500 0.000200
33.724400 0.000200
33.734300 0.000200
33.744200 0.000200
33.754100 0.000200
33.764000 0.000200
33.773900 0.000200
33.783800 0.000200
33.793700 0.000199
33.803600 0.000199
33.813500 0.000199
33.823400 0.000199
33.833300 0.000199
33.843200 0.000199
33.853100 0.000199
33.863000 0.000199
33.872900 0.000198
33.882800 0.000198
33.892700 0.000198
33.902600 0.000198
33.912500 0.000198
33.922400 0.000198
33.932300 0.000198
33.942200 0.000198
33.952100 0.000197
33.962000 0.000197
33.971900 0.000197
33.981800 0.000197
33.991700 0.000197
34.001600 0.000197
34.011500 0.000197
34.021400 0.000197
34.031300 0.000196
34.041200 0.000196
34.051100 0.000196
34.061000 0.000196
34.070900 0.000196
34.080800 0.000196
34.090700 0.000196
34.100600 0.000196
34.110500 0.000195
34.120400 0.000195
34.130300 0.000195
34.140200 0.000195
34.150100 0.000195
34.160000 0.000195
34.169900 0.000195
34.179800 0.000195
34.189700 0.000194
34.199600 0.000194
34.209500 0.000194
34.219400 0.000194
34.229300 0.000194
34.239200 0.000194
34.249100 0.000194
34.259000 0.000194
34.268900 0.000193
34.278800 0.000193
34.288700 0.000193
34.298600 0.000193
34.308500 0.000193
34.318400 0.000193
34.328300 0.000193
34.338200 0.000193
34.348100 0.000192
34.358000 0.000192
34.367900 0.000192
34.377800 0.000192
34.387700 0.000192
34.397600 0.000192
34.407500 0.000192
34.417400 0.000192
34.427300 0.000191
34.437200 0.000191
34.447100 0.000191
34.457000 0.000191
34.466900 0.000191
34.476800 0.000191
34.486700 0.000191
34.496600 0.000191
34.506500 0.000190
34.516400 0.000190
34.526300 0.000190
34.536200 0.000190
34.546100 0.000190
34.556000 0.000190
34.565900 0.000190
34.575800 0.000190
34.585700 0.000190
34.595600 0.000189
34.605500 0.000189
34.615400 0.000189
34.625300 0.000189
34.635200 0.000189
34.645100 0.000189
34.655000 0.000189
34.664900 0.000189
34.674800 0.000188
34.684700 0.000188
34.694600 0.000188
34.704500 0.000188
34.714400 0.000188
34.724300 0.000188
34.734200 0.000188
34.744100 0.000188
34.754000 0.000187
34.763900 0.000187
34.773800 0.000187
34.783700 0.000187
34.793600 0.000187
34.803500 0.000187
34.813400 0.000187
34.823300 0.000187
34.833200 0.000187
34.843100 0.000186
34.853000 0.000186
34.862900 0.000186
34.872800 0.000186
34.882700 0.000186
34.892600 0.000186
34.902500 0.000186
34.912400 0.000186
34.922300 0.000186
34.932200 0.000185
34.942100 0.000185
34.952000 0.000185
34.961900 0.000185
34.971800 0.000185
34.981700 0.000185
34.991600 0.000185
35.001500 0.000185
35.011400 0.000184
35.021300 0.000184
35.031200 0.000184
35.041100 0.000184
35.051000 0.000184
35.060900 0.000184
35.070800 0.000184
35.080700 0.000184
35.090600 0.000184
35.100500 0.000183
35.110400 0.000183
35.120300 0.000183
35.130200 0.000183
35.140100 0.000183
35.150000 0.000183
35.159900 0.000183
35.169800 0.000183
35.179700 0.000183
35.189600 0.000182
35.199500 0.000182
35.209400 0.000182
35.219300 0.000182
35.229200 0.000182
35.239100 0.000182
35.249000 0.000182
35.258900 0.000182
35.268800 0.000182
35.278700 0.000181
35.288600 0.000181
35.298500 0.000181
35.308400 0.000181
35.318300 0.000181
35.328200 0.000181
35.338100 0.000181
35.348000 0.000181
35.357900 0.000181
35.367800 0.000180
35.377700 0.000180
35.387600 0.000180
35.397500 0.000180
35.407400 0.000180
35.417300 0.000180
35.427200 0.000180
35.437100 0.000180
35.447000 0.000180
35.456900 0.000179
35.466800 0.000179
35.476700 0.000179
35.486600 0.000179
35.496500 0.000179
35.506400 0.000179
35.516300 0.000179
35.526200 0.000179
35.536100 0.000179
35.546000 0.000178
35.555900 0.000178
35.565800 0.000178
35.575700 0.000178
35.585600 0.000178
35.595500 0.000178
35.605400 0.000178
35.615300 0.000178
35.625200 0.000178
35.635100 0.000177
35.645000 0.000177
35.654900 0.000177
35.664800 0.000177
35.674700 0.000177
35.684600 0.000177
35.694500 0.000177
35.704400 0.000177
35.714300 0.000177
35.724200 0.000176
35.734100 0.000176
35.744000 0.000176
35.753900 0.000176
35.763800 0.000176
35.773700 0.000176
35.783600 0.000176
35.793500 0.000176
35.803400 0.000176
35.813300 0.000176
35.823200 0.000175
35.833100 0.000175
35.843000 0.000175
35.852900 0.000175
35.862800 0.000175
35.872700 0.000175
35.882600 0.000175
35.892500 0.000175
35.902400 0.000175
35.912300 0.000174
35.922200 0.000174
35.932100 0.000174
35.942000 0.000174
35.951900 0.000174
35.961800 0.000174
35.971700 0.000174
35.981600 0.000174
35.991500 0.000174
36.001400 0.000174
36.011300 0.000173
36.021200 0.000173
36.031100 0.000173
36.041000 0.000173
36.050900 0.000173
36.060800 0.000173
36.070700 0.000173
36.080600 0.000173
36.090500 0.000173
36.100400 0.000172
36.110300 0.000172
36.120200 0.000172
36.130100 0.000172
36.140000 0.000172
36.149900 0.000172
36.159800 0.000172
36.169700 0.000172
36.179600 0.000172
36.189500 0.000172
36.199400 0.000171
36.209300 0.000171
36.219200 0.000171
36.229100 0.000171
36.239000 0.000171
36.248900 0.000171
36.258800 0.000171
36.268700 0.000171
36.278600 0.000171
36.288500 0.000171
36.298400 0.000170
36.308300 0.000170
36.318200 0.000170
36.328100 0.000170
36.338000 0.000170
36.347900 0.000170
36.357800 0.000170
36.367700 0.000170
36.377600 0.000170
36.387500 0.000170
36.397400 0.000169
36.407300 0.000169
36.417200 0.000169
36.427100 0.000169
36.437000 0.000169
36.446900 0.000169
36.456800 0.000169
36.466700 0.000169
36.476600 0.000169
36.486500 0.000169
36.496400 0.000168
36.506300 0.000168
36.516200 0.000168
36.526100 0.000168
36.536000 0.000168
36.545900 0.000168
36.555800 0.000168
36.565700 0.000168
36.575600 0.000168
36.585500 0.000168
36.595400 0.000167
36.605300 0.000167
36.615200 0.000167
36.625100 0.000167
36.635000 0.000167
36.644900 0.000167
36.654800 0.000167
36.664700 0.000167
36.674600 0.000167
36.684500 0.000167
36.694400 0.000166
36.704300 0.000166
36.714200 0.000166
36.724100 0.000166
36.734000 0.000166
36.743900 0.000166
36.753800 0.000166
36.763700 0.000166
36.773600 0.000166
36.783500 0.000166
36.793400 0.000165
36.803300 0.000165
36.813200 0.000165
36.823100 0.000165
36.833000 0.000165
36.842900 0.000165
36.852800 0.000165
36.862700 0.000165
36.872600 0.000165
36.882500 0.000165
36.892400 0.000165
36.902300 0.000164
36.912200 0.000164
36.922100 0.000164
36.932000 0.000164
36.941900 0.000164
36.951800 0.000164
36.961700 0.000164
36.971600 0.000164
36.981500 0.000164
36.991400 0.000164
37.001300 0.000163
37.011200 0.000163
37.021100 0.000163
37.031000 0.000163
37.040900 0.000163
37.050800 0.000163
37.060700 0.000163
37.070600 0.000163
37.080500 0.000163
37.090400 0.000163
37.100300 0.000163
37.110200 0.000162
37.120100 0.000162
37.130000 0.000162
37.139900 0.000162
37.149800 0.000162
37.159700 0.000162
37.169600 0.000162
37.179500 0.000162
37.189400 0.000162
37.199300 0.000162
37.209200 0.000161
37.219100 0.000161
37.229000 0.000161
37.238900 0.000161
37.248800 0.000161
37.258700 0.000161
37.268600 0.000161
37.278500 0.000161
37.288400 0.000161
37.298300 0.000161
37.308200 0.000161
37.318100 0.000160
37.328000 0.000160
37.337900 0.000160
37.347800 0.000160
37.357700 0.000160
37.367600 0.000160
37.377500 0.000160
37.387400 0.000160
37.397300 0.000160
37.407200 0.000160
37.417100 0.000160
37.427000 0.000159
37.436900 0.000159
37.446800 0.000159
37.456700 0.000159
37.466600 0.000159
37.476500 0.000159
37.486400 0.000159
37.496300 0.000159
37.506200 0.000159
37.516100 0.000159
37.526000 0.000159
37.535900 0.000158
37.545800 0.000158
37.555700 0.000158
37.565600 0.000158
37.575500 0.000158
37.585400 0.000158
37.595300 0.000158
37.605200 0.000158
37.615100 0.000158
37.625000 0.000158
37.634900 0.000158
37.644800 0.000157
37.654700 0.000157
37.664600 0.000157
37.674500 0.000157
37.684400 0.000157
37.694300 0.000157
37.704200 0.000157
37.714100 0.000157
37.724000 0.000157
37.733900 0.000157
37.743800 0.000157
37.753700 0.000156
37.763600 0.000156
37.773500 0.000156
37.783400 0.000156
37.793300 0.000156
37.803200 0.000156
37.813100 0.000156
37.823000 0.000156
37.832900 0.000156
37.842800 0.000156
37.852700 0.000156
37.862600 0.000156
37.872500 0.000155
37.882400 0.000155
37.892300 0.000155
37.902200 0.000155
37.912100 0.000155
37.922000 0.000155
37.931900 0.000155
37.941800 0.000155
37.951700 0.000155
37.961600 0.000155
37.971500 0.000155
37.981400 0.000154
37.991300 0.000154
38.001200 0.000154
38.011100 0.000154
38.021000 0.000154
38.030900 0.000154
38.040800 0.000154
38.050700 0.000154
38.060600 0.000154
38.070500 0.000154
38.080400 0.000154
38.090300 0.000153
38.100200 0.000153
38.110100 0.000153
38.120000 0.000153
38.129900 0.000153
38.139800 0.000153
38.149700 0.000153
38.159600 0.000153
38.169500 0.000153
38.179400 0.000153
38.189300 0.000153
38.199200 0.000153
38.209100 0.000152
38.219000 0.000152
38.228900 0.000152
38.238800 0.000152
38.248700 0.000152
38.258600 0.000152
38.268500 0.000152
38.278400 0.000152
38.288300 0.000152
38.298200 0.000152
38.308100 0.000152
38.318000 0.000152
38.327900 0.000151
38.337800 0.000151
38.347700 0.000151
38.357600 0.000151
38.367500 0.000151
38.377400 0.000151
38.387300 0.000151
38.397200 0.000151
38.407100 0.000151
38.417000 0.000151
38.426900 0.000151
38.436800 0.000151
38.446700 0.000150
38.456600 0.000150
38.466500 0.000150
38.476400 0.000150
38.486300 0.000150
38.496200 0.000150
38.506100 0.000150
38.516000 0.000150
38.525900 0.000150
38.535800 0.000150
38.545700 0.000150
38.555600 0.000150
38.565500 0.000149
38.575400 0.000149
38.585300 0.000149
38.595200 0.000149
38.605100 0.000149
38.615000 0.000149
38.624900 0.000149
38.634800 0.000149
38.644700 0.000149
38.654600 0.000149
38.664500 0.000149
38.674400 0.000149
38.684300 0.000148
38.694200 0.000148
38.704100 0.000148
38.714000 0.000148
38.723900 0.000148
38.733800 0.000148
38.743700 0.000148
38.753600 0.000148
38.763500 0.000148
38.773400 0.000148
38.783300 0.000148
38.793200 0.000148
38.803100 0.000147
38.813000 0.000147
38.822900 0.000147
38.832800 0.000147
38.842700 0.000147
38.852600 0.000147
38.862500 0.000147
38.872400 0.000147
38.882300 0.000147
38.892200 0.000147
38.902100 0.000147
38.912000 0.000147
38.921900 0.000147
38.931800 0.000146
38.941700 0.000146
38.951600 0.000146
38.961500 0.000146
38.971400 0.000146
38.981300 0.000146
38.991200 0.000146
39.001100 0.000146
39.011000 0.000146
39.020900 0.000146
39.030800 0.000146
39.040700 0.000146
39.050600 0.000145
39.060500 0.000145
39.070400 0.000145
39.080300 0.000145
39.090200 0.000145
39.100100 0.000145
39.110000 0.000145
39.119900 0.000145
39.129800 0.000145
39.139700 0.000145
39.149600 0.000145
39.159500 0.000145
39.169400 0.000145
39.179300 0.000144
39.189200 0.000144
39.199100 0.000144
39.209000 0.000144
39.218900 0.000144
39.228800 0.000144
39.238700 0.000144
39.248600 0.000144
39.258500 0.000144
39.268400 0.000144
39.278300 0.000144
39.288200 0.000144
39.298100 0.000143
39.308000 0.000143
39.317900 0.000143
39.327800 0.000143
39.337700 0.000143
39.347600 0.000143
39.357500 0.000143
39.367400 0.000143
39.377300 0.000143
39.387200 0.000143
39.397100 0.000143
39.407000 0.000143
39.416900 0.000143
39.426800 0.000142
39.436700 0.000142
39.446600 0.000142
39.456500 0.000142
39.466400 0.000142
39.476300 0.000142
39.486200 0.000142
39.496100 0.000142
39.506000 0.000142
39.515900 0.000142
39.525800 0.000142
39.535700 0.000142
39.545600 0.000142
39.555500 0.000141
39.565400 0.000141
39.575300 0.000141
39.585200 0.000141
39.595100 0.000141
39.605000 0.000141
39.614900 0.000141
39.624800 0.000141
39.634700 0.000141
39.644600 0.000141
39.654500 0.000141
39.664400 0.000141
39.674300 0.000141
39.684200 0.000141
39.694100 0.000140
39.704000 0.000140
39.713900 0.000140
39.723800 0.000140
39.733700 0.000140
39.743600 0.000140
39.753500 0.000140
39.763400 0.000140
39.773300 0.000140
39.783200 0.000140
39.793100 0.000140
39.803000 0.000140
39.812900 0.000140
39.822800 0.000139
39.832700 0.000139
39.842600 0.000139
39.852500 0.000139
39.862400 0.000139
39.872300 0.000139
39.882200 0.000139
39.892100 0.000139
39.902000 0.000139
39.911900 0.000139
39.921800 0.000139
39.931700 0.000139
39.941600 0.000139
39.951500 0.000139
39.961400 0.000138
39.971300 0.000138
39.981200 0.000138
39.991100 0.000138
40.001000 0.000138
40.010900 0.000138
40.020800 0.000138
40.030700 0.000138
40.040600 0.000138
40.050500 0.000138
40.060400 0.000138
40.070300 0.000138
40.080200 0.000138
40.090100 0.000137
40.100000 0.000137
40.109900 0.000137
40.119800 0.000137
40.129700 0.000137
40.139600 0.000137
40.149500 0.000137
40.159400 0.000137
40.169300 0.000137
40.179200 0.000137
40.189100 0.000137
40.199000 0.000137
40.208900 0.000137
40.218800 0.000137
40.228700 0.000136
40.238600 0.000136
40.248500 0.000136
40.258400 0.000136
40.268300 0.000136
40.278200 0.000136
40.288100 0.000136
40.298000 0.000136
40.307900 0.000136
40.317800 0.000136
40.327700 0.000136
40.337600 0.000136
40.347500 0.000136
40.357400 0.000136
40.367300 0.000135
40.377200 0.000135
40.387100 0.000135
40.397000 0.000135
40.406900 0.000135
40.416800 0.000135
40.426700 0.000135
40.436600 0.000135
40.446500 0.000135
40.456400 0.000135
40.466300 0.000135
40.476200 0.000135
40.486100 0.000135
40.496000 0.000135
40.505900 0.000134
40.515800 0.000134
40.525700 0.000134
40.535600 0.000134
40.545500 0.000134
40.555400 0.000134
40.565300 0.000134
40.575200 0.000134
40.585100 0.000134
40.595000 0.000134
40.604900 0.000134
40.614800 0.000134
40.624700 0.000134
40.634600 0.000134
40.644500 0.000133
40.654400 0.000133
40.664300 0.000133
40.674200 0.000133
40.684100 0.000133
40.694000 0.000133
40.703900 0.000133
40.713800 0.000133
40.723700 0.000133
40.733600 0.000133
40.743500 0.000133
40.753400 0.000133
40.763300 0.000133
40.773200 0.000133
40.783100 0.000133
40.793000 0.000132
40.802900 0.000132
40.812800 0.000132
40.822700 0.000132
40.832600 0.000132
40.842500 0.000132
40.852400 0.000132
40.862300 0.000132
40.872200 0.000132
40.882100 0.000132
40.892000 0.000132
40.901900 0.000132
40.911800 0.000132
40.921700 0.000132
40.931600 0.000131
40.941500 0.000131
40.951400 0.000131
40.961300 0.000131
40.971200 0.000131
40.981100 0.000131
40.991000 0.000131
41.000900 0.000131
41.010800 0.000131
41.020700 0.000131
41.030600 0.000131
41.040500 0.000131
41.050400 0.000131
41.060300 0.000131
41.070200 0.000131
41.080100 0.000130
41.090000 0.000130
41.099900 0.000130
41.109800 0.000130
41.119700 0.000130
41.129600 0.000130
41.139500 0.000130
41.149400 0.000130
41.159300 0.000130
41.169200 0.000130
41.179100 0.000130
41.189000 0.000130
41.198900 0.000130
41.208800 0.000130
41.218700 0.000130
41.228600 0.000129
41.238500 0.000129
41.248400 0.000129
41.258300 0.000129
41.268200 0.000129
41.278100 0.000129
41.288000 0.000129
41.297900 0.000129
41.307800 0.000129
41.317700 0.000129
41.327600 0.000129
41.337500 0.000129
41.347400 0.000129
41.357300 0.000129
41.367200 0.000129
41.377100 0.000128
41.387000 0.000128
41.396900 0.000128
41.406800 0.000128
41.416700 0.000128
41.426600 0.000128
41.436500 0.000128
41.446400 0.000128
41.456300 0.000128
41.466200 0.000128
41.476100 0.000128
41.486000 0.000128
41.495900 0.000128
41.505800 0.000128
41.515700 0.000128
41.525600 0.000128
41.535500 0.000127
41.545400 0.000127
41.555300 0.000127
41.565200 0.000127
41.575100 0.000127
41.585000 0.000127
41.594900 0.000127
41.604800 0.000127
41.614700 0.000127
41.624600 0.000127
41.634500 0.000127
41.644400 0.000127
41.654300 0.000127
41.664200 0.000127
41.674100 0.000127
41.684000 0.000126
41.693900 0.000126
41.703800 0.000126
41.713700 0.000126
41.723600 0.000126
41.733500 0.000126
41.743400 0.000126
41.753300 0.000126
41.763200 0.000126
41.773100 0.000126
41.783000 0.000126
41.792900 0.000126
41.802800 0.000126
41.812700 0.000126
41.822600 0.000126
41.832500 0.000126
41.842400 0.000125
41.852300 0.000125
41.862200 0.000125
41.872100 0.000125
41.882000 0.000125
41.891900 0.000125
41.901800 0.000125
41.911700 0.000125
41.921600 0.000125
41.931500 0.000125
41.941400 0.000125
41.951300 0.000125
41.961200 0.000125
41.971100 0.000125
41.981000 0.000125
41.990900 0.000125
42.000800 0.000124
42.010700 0.000124
42.020600 0.000124
42.030500 0.000124
42.040400 0.000124
42.050300 0.000124
42.060200 0.000124
42.070100 0.000124
42.080000 0.000124
42.089900 0.000124
42.099800 0.000124
42.109700 0.000124
42.119600 0.000124
42.129500 0.000124
42.139400 0.000124
42.149300 0.000124
42.159200 0.000123
42.169100 0.000123
42.179000 0.000123
42.188900 0.000123
42.198800 0.000123
42.208700 0.000123
42.218600 0.000123
42.228500 0.000123
42.238400 0.000123
42.248300 0.000123
42.258200 0.000123
42.268100 0.000123
42.278000 0.000123
42.287900 0.000123
42.297800 0.000123
42.307700 0.000123
42.317600 0.000122
42.327500 0.000122
42.337400 0.000122
42.347300 0.000122
42.357200 0.000122
42.367100 0.000122
42.377000 0.000122
42.386900 0.000122
42.396800 0.000122
42.406700 0.000122
42.416600 0.000122
42.426500 0.000122
42.436400 0.000122
42.446300 0.000122
42.456200 0.000122
42.466100 0.000122
42.476000 0.000122
42.485900 0.000121
42.495800 0.000121
42.505700 0.000121
42.515600 0.000121
42.525500 0.000121
42.535400 0.000121
42.545300 0.000121
42.555200 0.000121
42.565100 0.000121
42.575000 0.000121
42.584900 0.000121
42.594800 0.000121
42.604700 0.000121
42.614600 0.000121
42.624500 0.000121
42.634400 0.000121
42.644300 0.000120
42.654200 0.000120
42.664100 0.000120
42.674000 0.000120
42.683900 0.000120
42.693800 0.000120
42.703700 0.000120
42.713600 0.000120
42.723500 0.000120
42.733400 0.000120
42.743300 0.000120
42.753200 0.000120
42.763100 0.000120
42.773000 0.000120
42.782900 0.000120
42.792800 0.000120
42.802700 0.000120
42.812600 0.000119
42.822500 0.000119
42.832400 0.000119
42.842300 0.000119
42.852200 0.000119
42.862100 0.000119
42.872000 0.000119
42.881900 0.000119
42.891800 0.000119
42.901700 0.000119
42.911600 0.000119
42.921500 0.000119
42.931400 0.000119
42.941300 0.000119
42.951200 0.000119
42.961100 0.000119
42.971000 0.000119
42.980900 0.000118
42.990800 0.000118
43.000700 0.000118
43.010600 0.000118
43.020500 0.000118
43.030400 0.000118
43.040300 0.000118
43.050200 0.000118
43.060100 0.000118
43.070000 0.000118
43.079900 0.000118
43.089800 0.000118
43.099700 0.000118
43.109600 0.000118
43.119500 0.000118
43.129400 0.000118
43.139300 0.000118
43.149200 0.000118
43.159100 0.000117
43.169000 0.000117
43.178900 0.000117
43.188800 0.000117
43.198700 0.000117
43.208600 0.000117
43.218500 0.000117
43.228400 0.000117
43.238300 0.000117
43.248200 0.000117
43.258100 0.000117
43.268000 0.000117
43.277900 0.000117
43.287800 0.000117
43.297700 0.000117
43.307600 0.000117
43.317500 0.000117
43.327400 0.000116
43.337300 0.000116
43.347200 0.000116
43.357100 0.000116
43.367000 0.000116
43.376900 0.000116
43.386800 0.000116
43.396700 0.000116
43.406600 0.000116
43.416500 0.000116
43.426400 0.000116
43.436300 0.000116
43.446200 0.000116
43.456100 0.000116
43.466000 0.000116
43.475900 0.000116
43.485800 0.000116
43.495700 0.000116
43.505600 0.000115
43.515500 0.000115
43.525400 0.000115
43.535300 0.000115
43.545200 0.000115
43.555100 0.000115
43.565000 0.000115
43.574900 0.000115
43.584800 0.000115
43.594700 0.000115
43.604600 0.000115
43.614500 0.000115
43.624400 0.000115
43.634300 0.000115
43.644200 0.000115
43.654100 0.000115
43.664000 0.000115
43.673900 0.000115
43.683800 0.000114
43.693700 0.000114
43.703600 0.000114
43.713500 0.000114
43.723400 0.000114
43.733300 0.000114
43.743200 0.000114
43.753100 0.000114
43.763000 0.000114
43.772900 0.000114
43.782800 0.000114
43.792700 0.000114
43.802600 0.000114
43.812500 0.000114
43.822400 0.000114
43.832300 0.000114
43.842200 0.000114
43.852100 0.000114
43.862000 0.000113
43.871900 0.000113
43.881800 0.000113
43.891700 0.000113
43.901600 0.000113
43.911500 0.000113
43.921400 0.000113
43.931300 0.000113
43.941200 0.000113
43.951100 0.000113
43.961000 0.000113
43.970900 0.000113
43.980800 0.000113
43.990700 0.000113
44.000600 0.000113
44.010500 0.000113
44.020400 0.000113
44.030300 0.000113
44.040200 0.000113
44.050100 0.000112
44.060000 0.000112
44.069900 0.000112
44.079800 0.000112
44.089700 0.000112
44.099600 0.000112
44.109500 0.000112
44.119400 0.000112
44.129300 0.000112
44.139200 0.000112
44.149100 0.000112
44.159000 0.000112
44.168900 0.000112
44.178800 0.000112
44.188700 0.000112
44.198600 0.000112
44.208500 0.000112
44.218400 0.000112
44.228300 0.000112
44.238200 0.000111
44.248100 0.000111
44.258000 0.000111
44.267900 0.000111
44.277800 0.000111
44.287700 0.000111
44.297600 0.000111
44.307500 0.000111
44.317400 0.000111
44.327300 0.000111
44.337200 0.000111
44.347100 0.000111
44.357000 0.000111
44.366900 0.000111
44.376800 0.000111
44.386700 0.000111
44.396600 0.000111
44.406500 0.000111
44.416400 0.000111
44.426300 0.000110
44.436200 0.000110
44.446100 0.000110
44.456000 0.000110
44.465900 0.000110
44.475800 0.000110
44.485700 0.000110
44.495600 0.000110
44.505500 0.000110
44.515400 0.000110
44.525300 0.000110
44.535200 0.000110
44.545100 0.000110
44.555000 0.000110
44.564900 0.000110
44.574800 0.000110
44.584700 0.000110
44.594600 0.000110
44.604500 0.000110
44.614400 0.000109
44.624300 0.000109
44.634200 0.000109
44.644100 0.000109
44.654000 0.000109
44.663900 0.000109
44.673800 0.000109
44.683700 0.000109
44.693600 0.000109
44.703500 0.000109
44.713400 0.000109
44.723300 0.000109
44.733200 0.000109
44.743100 0.000109
44.753000 0.000109
44.762900 0.000109
44.772800 0.000109
44.782700 0.000109
44.792600 0.000109
44.802500 0.000109
44.812400 0.000108
44.822300 0.000108
44.832200 0.000108
44.842100 0.000108
44.852000 0.000108
44.861900 0.000108
44.871800 0.000108
44.881700 0.000108
44.891600 0.000108
44.901500 0.000108
44.911400 0.000108
44.921300 0.000108
44.931200 0.000108
44.941100 0.000108
44.951000 0.000108
44.960900 0.000108
44.970800 0.000108
44.980700 0.000108
44.990600 0.000108
45.000500 0.000108
45.010400 0.000107
45.020300 0.000107
45.030200 0.000107
45.040100 0.000107
45.050000 0.000107
45.059900 0.000107
45.069800 0.000107
45.079700 0.000107
45.089600 0.000107
45.099500 0.000107
45.109400 0.000107
45.119300 0.000107
45.129200 0.000107
45.139100 0.000107
45.149000 0.000107
45.158900 0.000107
45.168800 0.000107
45.178700 0.000107
45.188600 0.000107
45.198500 0.000107
45.208400 0.000106
45.218300 0.000106
45.228200 0.000106
45.238100 0.000106
45.248000 0.000106
45.257900 0.000106
45.267800 0.000106
45.277700 0.000106
45.287600 0.000106
45.297500 0.000106
45.307400 0.000106
45.317300 0.000106
45.327200 0.000106
45.337100 0.000106
45.347000 0.000106
45.356900 0.000106
45.366800 0.000106
45.376700 0.000106
45.386600 0.000106
45.396500 0.000106
45.406400 0.000105
45.416300 0.000105
45.426200 0.000105
45.436100 0.000105
45.446000 0.000105
45.455900 0.000105
45.465800 0.000105
45.475700 0.000105
45.485600 0.000105
45.495500 0.000105
45.505400 0.000105
45.515300 0.000105
45.525200 0.000105
45.535100 0.000105
45.545000 0.000105
45.554900 0.000105
45.564800 0.000105
45.574700 0.000105
45.584600 0.000105
45.594500 0.000105
45.604400 0.000105
45.614300 0.000104
45.624200 0.000104
45.634100 0.000104
45.644000 0.000104
45.653900 0.000104
45.663800 0.000104
45.673700 0.000104
45.683600 0.000104
45.693500 0.000104
45.703400 0.000104
45.713300 0.000104
45.723200 0.000104
45.733100 0.000104
45.743000 0.000104
45.752900 0.000104
45.762800 0.000104
45.772700 0.000104
45.782600 0.000104
45.792500 0.000104
45.802400 0.000104
45.812300 0.000104
45.822200 0.000103
45.832100 0.000103
45.842000 0.000103
45.851900 0.000103
45.861800 0.000103
45.871700 0.000103
45.881600 0.000103
45.891500 0.000103
45.901400 0.000103
45.911300 0.000103
45.921200 0.000103
45.931100 0.000103
45.941000 0.000103
45.950900 0.000103
45.960800 0.000103
45.970700 0.000103
45.980600 0.000103
45.990500 0.000103
46.000400 0.000103
46.010300 0.000103
46.020200 0.000103
46.030100 0.000102
46.040000 0.000102
46.049900 0.000102
46.059800 0.000102
46.069700 0.000102
46.079600 0.000102
46.089500 0.000102
46.099400 0.000102
46.109300 0.000102
46.119200 0.000102
46.129100 0.000102
46.139000 0.000102
46.148900 0.000102
46.158800 0.000102
46.168700 0.000102
46.178600 0.000102
46.188500 0.000102
46.198400 0.000102
46.208300 0.000102
46.218200 0.000102
46.228100 0.000102
46.238000 0.000102
46.247900 0.000101
46.257800 0.000101
46.267700 0.000101
46.277600 0.000101
46.287500 0.000101
46.297400 0.000101
46.307300 0.000101
46.317200 0.000101
46.327100 0.000101
46.337000 0.000101
46.346900 0.000101
46.356800 0.000101
46.366700 0.000101
46.376600 0.000101
46.386500 0.000101
46.396400 0.000101
46.406300 0.000101
46.416200 0.000101
46.426100 0.000101
46.436000 0.000101
46.445900 0.000101
46.455800 0.000101
46.465700 0.000100
46.475600 0.000100
46.485500 0.000100
46.495400 0.000100
46.505300 0.000100
46.515200 0.000100
46.525100 0.000100
46.535000 0.000100
46.544900 0.000100
46.554800 0.000100
46.564700 0.000100
46.574600 0.000100
46.584500 0.000100
46.594400 0.000100
46.604300 0.000100
46.614200 0.000100
46.624100 0.000100
46.634000 0.000100
46.643900 0.000100
46.653800 0.000100
46.663700 0.000100
46.673600 0.000100
46.683500 0.000100
46.693400 0.000099
46.703300 0.000099
46.713200 0.000099
46.723100 0.000099
46.733000 0.000099
46.742900 0.000099
46.752800 0.000099
46.762700 0.000099
46.772600 0.000099
46.782500 0.000099
46.792400 0.000099
46.802300 0.000099
46.812200 0.000099
46.822100 0.000099
46.832000 0.000099
46.841900 0.000099
46.851800 0.000099
46.861700 0.000099
46.871600 0.000099
46.881500 0.000099
46.891400 0.000099
46.901300 0.000099
46.911200 0.000098
46.921100 0.000098
46.931000 0.000098
46.940900 0.000098
46.950800 0.000098
46.960700 0.000098
46.970600 0.000098
46.980500 0.000098
46.990400 0.000098
47.000300 0.000098
47.010200 0.000098
47.020100 0.000098
47.030000 0.000098
47.039900 0.000098
47.049800 0.000098
47.059700 0.000098
47.069600 0.000098
47.079500 0.000098
47.089400 0.000098
47.099300 0.000098
47.109200 0.000098
47.119100 0.000098
47.129000 0.000098
47.138900 0.000097
47.148800 0.000097
47.158700 0.000097
47.168600 0.000097
47.178500 0.000097
47.188400 0.000097
47.198300 0.000097
47.208200 0.000097
47.218100 0.000097
47.228000 0.000097
47.237900 0.000097
47.247800 0.000097
47.257700 0.000097
47.267600 0.000097
47.277500 0.000097
47.287400 0.000097
47.297300 0.000097
47.307200 0.000097
47.317100 0.000097
47.327000 0.000097
47.336900 0.000097
47.346800 0.000097
47.356700 0.000097
47.366600 0.000097
47.376500 0.000096
47.386400 0.000096
47.396300 0.000096
47.406200 0.000096
47.416100 0.000096
47.426000 0.000096
47.435900 0.000096
47.445800 0.000096
47.455700 0.000096
47.465600 0.000096
47.475500 0.000096
47.485400 0.000096
47.495300 0.000096
47.505200 0.000096
47.515100 0.000096
47.525000 0.000096
47.534900 0.000096
47.544800 0.000096
47.554700 0.000096
47.564600 0.000096
47.574500 0.000096
47.584400 0.000096
47.594300 0.000096
47.604200 0.000095
47.614100 0.000095
47.624000 0.000095
47.633900 0.000095
47.643800 0.000095
47.653700 0.000095
47.663600 0.000095
47.673500 0.000095
47.683400 0.000095
47.693300 0.000095
47.703200 0.000095
47.713100 0.000095
47.723000 0.000095
47.732900 0.000095
47.742800 0.000095
47.752700 0.000095
47.762600 0.000095
47.772500 0.000095
47.782400 0.000095
47.792300 0.000095
47.802200 0.000095
47.812100 0.000095
47.822000 0.000095
47.831900 0.000095
47.841800 0.000095
47.851700 0.000094
47.861600 0.000094
47.871500 0.000094
47.881400 0.000094
47.891300 0.000094
47.901200 0.000094
47.911100 0.000094
47.921000 0.000094
47.930900 0.000094
47.940800 0.000094
47.950700 0.000094
47.960600 0.000094
47.970500 0.000094
47.980400 0.000094
47.990300 0.000094
48.000200 0.000094
48.010100 0.000094
48.020000 0.000094
48.029900 0.000094
48.039800 0.000094
48.049700 0.000094
48.059600 0.000094
48.069500 0.000094
48.079400 0.000094
48.089300 0.000093
48.099200 0.000093
48.109100 0.000093
48.119000 0.000093
48.128900 0.000093
48.138800 0.000093
48.148700 0.000093
48.158600 0.000093
48.168500 0.000093
48.178400 0.000093
48.188300 0.000093
48.198200 0.000093
48.208100 0.000093
48.218000 0.000093
48.227900 0.000093
48.237800 0.000093
48.247700 0.000093
48.257600 0.000093
48.267500 0.000093
48.277400 0.000093
48.287300 0.000093
48.297200 0.000093
48.307100 0.000093
48.317000 0.000093
48.326900 0.000093
48.336800 0.000092
48.346700 0.000092
48.356600 0.000092
48.366500 0.000092
48.376400 0.000092
48.386300 0.000092
48.396200 0.000092
48.406100 0.000092
48.416000 0.000092
48.425900 0.000092
48.435800 0.000092
48.445700 0.000092
48.455600 0.000092
48.465500 0.000092
48.475400 0.000092
48.485300 0.000092
48.495200 0.000092
48.505100 0.000092
48.515000 0.000092
48.524900 0.000092
48.534800 0.000092
48.544700 0.000092
48.554600 0.000092
48.564500 0.000092
48.574400 0.000092
48.584300 0.000092
48.594200 0.000091
48.604100 0.000091
48.614000 0.000091
48.623900 0.000091
48.633800 0.000091
48.643700 0.000091
48.653600 0.000091
48.663500 0.000091
48.673400 0.000091
48.683300 0.000091
48.693200 0.000091
48.703100 0.000091
48.713000 0.000091
48.722900 0.000091
48.732800 0.000091
48.742700 0.000091
48.752600 0.000091
48.762500 0.000091
48.772400 0.000091
48.782300 0.000091
48.792200 0.000091
48.802100 0.000091
48.812000 0.000091
48.821900 0.000091
48.831800 0.000091
48.841700 0.000090
48.851600 0.000090
48.861500 0.000090
48.871400 0.000090
48.881300 0.000090
48.891200 0.000090
48.901100 0.000090
48.911000 0.000090
48.920900 0.000090
48.930800 0.000090
48.940700 0.000090
48.950600 0.000090
48.960500 0.000090
48.970400 0.000090
48.980300 0.000090
48.990200 0.000090
49.000100 0.000090
49.010000 0.000090
49.019900 0.000090
49.029800 0.000090
49.039700 0.000090
49.049600 0.000090
49.059500 0.000090
49.069400 0.000090
49.079300 0.000090
49.089200 0.000090
49.099100 0.000090
49.109000 0.000089
49.118900 0.000089
49.128800 0.000089
49.138700 0.000089
49.148600 0.000089
49.158500 0.000089
49.168400 0.000089
49.178300 0.000089
49.188200 0.000089
49.198100 0.000089
49.208000 0.000089
49.217900 0.000089
49.227800 0.000089
49.237700 0.000089
49.247600 0.000089
49.257500 0.000089
49.267400 0.000089
49.277300 0.000089
49.287200 0.000089
49.297100 0.000089
49.307000 0.000089
49.316900 0.000089
49.326800 0.000089
49.336700 0.000089
49.346600 0.000089
49.356500 0.000089
49.366400 0.000088
49.376300 0.000088
49.386200 0.000088
49.396100 0.000088
49.406000 0.000088
49.415900 0.000088
49.425800 0.000088
49.435700 0.000088
49.445600 0.000088
49.455500 0.000088
49.465400 0.000088
49.475300 0.000088
49.485200 0.000088
49.495100 0.000088
49.505000 0.000088
49.514900 0.000088
49.524800 0.000088
49.534700 0.000088
49.544600 0.000088
49.554500 0.000088
49.564400 0.000088
49.574300 0.000088
49.584200 0.000088
49.594100 0.000088
49.604000 0.000088
49.613900 0.000088
49.623800 0.000088
49.633700 0.000088
49.643600 0.000087
49.653500 0.000087
49.663400 0.000087
49.673300 0.000087
49.683200 0.000087
49.693100 0.000087
49.703000 0.000087
49.712900 0.000087
49.722800 0.000087
49.732700 0.000087
49.742600 0.000087
49.752500 0.000087
49.762400 0.000087
49.772300 0.000087
49.782200 0.000087
49.792100 0.000087
49.802000 0.000087
49.811900 0.000087
49.821800 0.000087
49.831700 0.000087
49.841600 0.000087
49.851500 0.000087
49.861400 0.000087
49.871300 0.000087
49.881200 0.000087
49.891100 0.000087
49.901000 0.000087
49.910900 0.000086
49.920800 0.000086
49.930700 0.000086
49.940600 0.000086
49.950500 0.000086
49.960400 0.000086
49.970300 0.000086
49.980200 0.000086
49.990100 0.000086
50.000000 0.000086
