# Random transverse-field Ising model
# L=22, J=1=gamma, W_J=0.2, W=3.0
# High-T dynamical energy conductivity sigma^E(omega); via MCLM
# omega/J sigma^E(omega)

0.000000 0.064875
0.000250 0.064273
0.000500 0.063304
0.000750 0.063380
0.001000 0.064875
0.001250 0.066716
0.001500 0.067358
0.001750 0.066616
0.002000 0.065911
0.002250 0.066475
0.002500 0.068029
0.002750 0.069050
0.003000 0.068549
0.003250 0.067409
0.003500 0.067194
0.003750 0.068291
0.004000 0.069508
0.004250 0.069372
0.004500 0.068040
0.004750 0.067119
0.005000 0.067745
0.005250 0.069496
0.005500 0.070814
0.005750 0.070746
0.006000 0.070224
0.006250 0.070855
0.006500 0.073068
0.006750 0.075596
0.007000 0.076654
0.007250 0.076115
0.007500 0.075687
0.007750 0.076701
0.008000 0.078626
0.008250 0.079658
0.008500 0.078984
0.008750 0.077981
0.009000 0.078442
0.009250 0.080593
0.009500 0.082838
0.009750 0.083353
0.010000 0.082337
0.010250 0.081722
0.010500 0.082738
0.010750 0.084590
0.011000 0.085360
0.011250 0.084457
0.011500 0.083519
0.011750 0.084350
0.012000 0.086963
0.012250 0.089444
0.012500 0.089857
0.012750 0.088700
0.013000 0.088244
0.013250 0.089760
0.013500 0.092235
0.013750 0.093441
0.014000 0.092687
0.014250 0.091786
0.014500 0.092607
0.014750 0.094858
0.015000 0.096306
0.015250 0.095366
0.015500 0.093247
0.015750 0.092338
0.016000 0.093431
0.016250 0.095038
0.016500 0.095101
0.016750 0.093639
0.017000 0.092725
0.017250 0.093822
0.017500 0.096124
0.017750 0.097285
0.018000 0.096180
0.018250 0.094466
0.018500 0.094462
0.018750 0.096611
0.019000 0.099030
0.019250 0.099351
0.019500 0.097605
0.019750 0.096094
0.020000 0.096372
0.020250 0.097603
0.020500 0.097673
0.020750 0.095969
0.021000 0.094257
0.021250 0.094358
0.021500 0.096047
0.021750 0.097250
0.022000 0.096513
0.022250 0.095060
0.022500 0.095266
0.022750 0.098037
0.023000 0.101897
0.023250 0.104098
0.023500 0.103583
0.023750 0.102325
0.024000 0.102676
0.024250 0.104659
0.024500 0.106022
0.024750 0.105012
0.025000 0.102843
0.025250 0.102097
0.025500 0.103678
0.025750 0.105877
0.026000 0.106070
0.026250 0.103919
0.026500 0.101817
0.026750 0.101857
0.027000 0.103692
0.027250 0.104972
0.027500 0.104074
0.027750 0.102261
0.028000 0.101916
0.028250 0.103648
0.028500 0.105628
0.028750 0.105571
0.029000 0.103671
0.029250 0.102399
0.029500 0.103557
0.029750 0.106512
0.030000 0.108805
0.030250 0.108892
0.030500 0.108191
0.030750 0.109171
0.031000 0.112325
0.031250 0.115439
0.031500 0.115860
0.031750 0.113934
0.032000 0.112518
0.032250 0.113315
0.032500 0.115097
0.032750 0.115254
0.033000 0.113281
0.033250 0.111594
0.033500 0.112471
0.033750 0.115600
0.034000 0.118200
0.034250 0.117855
0.034500 0.115584
0.034750 0.114461
0.035000 0.115948
0.035250 0.118481
0.035500 0.119073
0.035750 0.116949
0.036000 0.114586
0.036250 0.114485
0.036500 0.116480
0.036750 0.118005
0.037000 0.117080
0.037250 0.114997
0.037500 0.114613
0.037750 0.117012
0.038000 0.120406
0.038250 0.121825
0.038500 0.120704
0.038750 0.119623
0.039000 0.120847
0.039250 0.123678
0.039500 0.125147
0.039750 0.123614
0.040000 0.121067
0.040250 0.120473
0.040500 0.122366
0.040750 0.124349
0.041000 0.123765
0.041250 0.121185
0.041500 0.119627
0.041750 0.120842
0.042000 0.123560
0.042250 0.124816
0.042500 0.123565
0.042750 0.122179
0.043000 0.123431
0.043250 0.127502
0.043500 0.131663
0.043750 0.132919
0.044000 0.131750
0.044250 0.131429
0.044500 0.133816
0.044750 0.137295
0.045000 0.138480
0.045250 0.136424
0.045500 0.133925
0.045750 0.133833
0.046000 0.135788
0.046250 0.136621
0.046500 0.134166
0.046750 0.130218
0.047000 0.128131
0.047250 0.129034
0.047500 0.130966
0.047750 0.131083
0.048000 0.129163
0.048250 0.127892
0.048500 0.129510
0.048750 0.133331
0.049000 0.136202
0.049250 0.136001
0.049500 0.134487
0.049750 0.134894
0.050000 0.137971
0.050250 0.141084
0.050500 0.141070
0.050750 0.138398
0.051000 0.136612
0.051250 0.138015
0.051500 0.141449
0.051750 0.143593
0.052000 0.142962
0.052250 0.141950
0.052500 0.143601
0.052750 0.147940
0.053000 0.151707
0.053250 0.151829
0.053500 0.149352
0.053750 0.147976
0.054000 0.149364
0.054250 0.151232
0.054500 0.149924
0.054750 0.145233
0.055000 0.140803
0.055250 0.139736
0.055500 0.141770
0.055750 0.143765
0.056000 0.143082
0.056250 0.140897
0.056500 0.140497
0.056750 0.143170
0.057000 0.146670
0.057250 0.147431
0.057500 0.144983
0.057750 0.142643
0.058000 0.143335
0.058250 0.146515
0.058500 0.148741
0.058750 0.147643
0.059000 0.145090
0.059250 0.144547
0.059500 0.146753
0.059750 0.148805
0.060000 0.147390
0.060250 0.143168
0.060500 0.139872
0.060750 0.139745
0.061000 0.141465
0.061250 0.141720
0.061500 0.139284
0.061750 0.136703
0.062000 0.137054
0.062250 0.140671
0.062500 0.144715
0.062750 0.145853
0.063000 0.144356
0.063250 0.143712
0.063500 0.146200
0.063750 0.150443
0.064000 0.152770
0.064250 0.151565
0.064500 0.149409
0.064750 0.149549
0.065000 0.151965
0.065250 0.153407
0.065500 0.151428
0.065750 0.147887
0.066000 0.146628
0.066250 0.149212
0.066500 0.153488
0.066750 0.155488
0.067000 0.153967
0.067250 0.152022
0.067500 0.153002
0.067750 0.156777
0.068000 0.159898
0.068250 0.159590
0.068500 0.157489
0.068750 0.157312
0.069000 0.160106
0.069250 0.163019
0.069500 0.162587
0.069750 0.159354
0.070000 0.157168
0.070250 0.158316
0.070500 0.161060
0.070750 0.161539
0.071000 0.158652
0.071250 0.155666
0.071500 0.156052
0.071750 0.159767
0.072000 0.163117
0.072250 0.162431
0.072500 0.158651
0.072750 0.156009
0.073000 0.156949
0.073250 0.159936
0.073500 0.161345
0.073750 0.160024
0.074000 0.158922
0.074250 0.161167
0.074500 0.166374
0.074750 0.170754
0.075000 0.171241
0.075250 0.169574
0.075500 0.169969
0.075750 0.173879
0.076000 0.178184
0.076250 0.178259
0.076500 0.173696
0.076750 0.168844
0.077000 0.167350
0.077250 0.168560
0.077500 0.168640
0.077750 0.165267
0.078000 0.160727
0.078250 0.158903
0.078500 0.160940
0.078750 0.164215
0.079000 0.165022
0.079250 0.163119
0.079500 0.161997
0.079750 0.164274
0.080000 0.168555
0.080250 0.170604
0.080500 0.168372
0.080750 0.164848
0.081000 0.164079
0.081250 0.166589
0.081500 0.168958
0.081750 0.167700
0.082000 0.163871
0.082250 0.161649
0.082500 0.163303
0.082750 0.167006
0.083000 0.168726
0.083250 0.167104
0.083500 0.165339
0.083750 0.166975
0.084000 0.171857
0.084250 0.176019
0.084500 0.175726
0.084750 0.172129
0.085000 0.169640
0.085250 0.170506
0.085500 0.172632
0.085750 0.172204
0.086000 0.168746
0.086250 0.165923
0.086500 0.167074
0.086750 0.171820
0.087000 0.176316
0.087250 0.177239
0.087500 0.176016
0.087750 0.176666
0.088000 0.180414
0.088250 0.184062
0.088500 0.183696
0.088750 0.180073
0.089000 0.177818
0.089250 0.179893
0.089500 0.184721
0.089750 0.187656
0.090000 0.185977
0.090250 0.182200
0.090500 0.180716
0.090750 0.182646
0.091000 0.184746
0.091250 0.183311
0.091500 0.179248
0.091750 0.176859
0.092000 0.178477
0.092250 0.182082
0.092500 0.183457
0.092750 0.181225
0.093000 0.178706
0.093250 0.179761
0.093500 0.184578
0.093750 0.189426
0.094000 0.190818
0.094250 0.190189
0.094500 0.191847
0.094750 0.197122
0.095000 0.202092
0.095250 0.201281
0.095500 0.194552
0.095750 0.187442
0.096000 0.184616
0.096250 0.185957
0.096500 0.187470
0.096750 0.185966
0.097000 0.183225
0.097250 0.183445
0.097500 0.187993
0.097750 0.193606
0.098000 0.195343
0.098250 0.192549
0.098500 0.189652
0.098750 0.190233
0.099000 0.192962
0.099250 0.193245
0.099500 0.189148
0.099750 0.184195
0.100000 0.182765
0.100250 0.185262
0.100500 0.187743
0.100750 0.186120
0.101000 0.181355
0.101250 0.178042
0.101500 0.178734
0.101750 0.181489
0.102000 0.182167
0.102250 0.179732
0.102500 0.177790
0.102750 0.179954
0.103000 0.185785
0.103250 0.190716
0.103500 0.190473
0.103750 0.186414
0.104000 0.183555
0.104250 0.184307
0.104500 0.186111
0.104750 0.184563
0.105000 0.179256
0.105250 0.174410
0.105500 0.173571
0.105750 0.176114
0.106000 0.178015
0.106250 0.176386
0.106500 0.173268
0.106750 0.172840
0.107000 0.176473
0.107250 0.181257
0.107500 0.182822
0.107750 0.180685
0.108000 0.178875
0.108250 0.180609
0.108500 0.184601
0.108750 0.186295
0.109000 0.183306
0.109250 0.178740
0.109500 0.177263
0.109750 0.180144
0.110000 0.184199
0.110250 0.184926
0.110500 0.181971
0.110750 0.179477
0.111000 0.180598
0.111250 0.184024
0.111500 0.185498
0.111750 0.183146
0.112000 0.180132
0.112250 0.180470
0.112500 0.184418
0.112750 0.188134
0.113000 0.187880
0.113250 0.184949
0.113500 0.183904
0.113750 0.186973
0.114000 0.191771
0.114250 0.193808
0.114500 0.191943
0.114750 0.189917
0.115000 0.191506
0.115250 0.196226
0.115500 0.199769
0.115750 0.198910
0.116000 0.195752
0.116250 0.195056
0.116500 0.198684
0.116750 0.203565
0.117000 0.204802
0.117250 0.201869
0.117500 0.199448
0.117750 0.201532
0.118000 0.207242
0.118250 0.211636
0.118500 0.211190
0.118750 0.208451
0.119000 0.208625
0.119250 0.213358
0.119500 0.218949
0.119750 0.220133
0.120000 0.216569
0.120250 0.213243
0.120500 0.214013
0.120750 0.217316
0.121000 0.218036
0.121250 0.214077
0.121500 0.209399
0.121750 0.208791
0.122000 0.212439
0.122250 0.215593
0.122500 0.213568
0.122750 0.207721
0.123000 0.203525
0.123250 0.203997
0.123500 0.207037
0.123750 0.208059
0.124000 0.205899
0.124250 0.204555
0.124500 0.208072
0.124750 0.216032
0.125000 0.223400
0.125250 0.225388
0.125500 0.223448
0.125750 0.223130
0.126000 0.226893
0.126250 0.231457
0.126500 0.231948
0.126750 0.228646
0.127000 0.226830
0.127250 0.230062
0.127500 0.236075
0.127750 0.238728
0.128000 0.235046
0.128250 0.229145
0.128500 0.226889
0.128750 0.229402
0.129000 0.232173
0.129250 0.230095
0.129500 0.224049
0.129750 0.219610
0.130000 0.220129
0.130250 0.223439
0.130500 0.224385
0.130750 0.221269
0.131000 0.218206
0.131250 0.219711
0.131500 0.225541
0.131750 0.230638
0.132000 0.230499
0.132250 0.227017
0.132500 0.225911
0.132750 0.229706
0.133000 0.235053
0.133250 0.236220
0.133500 0.232220
0.133750 0.228192
0.134000 0.228831
0.134250 0.233286
0.134500 0.236055
0.134750 0.233424
0.135000 0.228481
0.135250 0.226878
0.135500 0.230098
0.135750 0.233952
0.136000 0.233094
0.136250 0.227763
0.136500 0.223453
0.136750 0.224153
0.137000 0.228374
0.137250 0.230849
0.137500 0.228850
0.137750 0.225921
0.138000 0.227174
0.138250 0.233392
0.138500 0.240097
0.138750 0.242112
0.139000 0.239903
0.139250 0.238904
0.139500 0.242517
0.139750 0.248009
0.140000 0.249338
0.140250 0.244892
0.140500 0.239950
0.140750 0.239986
0.141000 0.244826
0.141250 0.248845
0.141500 0.247008
0.141750 0.241203
0.142000 0.237501
0.142250 0.238652
0.142500 0.241347
0.142750 0.240103
0.143000 0.234288
0.143250 0.229054
0.143500 0.228966
0.143750 0.233240
0.144000 0.236369
0.144250 0.234054
0.144500 0.228682
0.144750 0.225964
0.145000 0.227988
0.145250 0.231065
0.145500 0.229835
0.145750 0.224250
0.146000 0.219699
0.146250 0.220268
0.146500 0.224612
0.146750 0.227250
0.147000 0.224694
0.147250 0.219982
0.147500 0.218486
0.147750 0.221619
0.148000 0.225630
0.148250 0.225908
0.148500 0.223008
0.148750 0.221986
0.149000 0.226089
0.149250 0.233067
0.149500 0.237039
0.149750 0.235342
0.150000 0.232165
0.150250 0.232870
0.150500 0.237664
0.150750 0.241338
0.151000 0.239244
0.151250 0.233521
0.151500 0.230340
0.151750 0.232789
0.152000 0.238166
0.152250 0.240868
0.152500 0.239029
0.152750 0.236923
0.153000 0.239214
0.153250 0.245244
0.153500 0.249291
0.153750 0.247203
0.154000 0.242157
0.154250 0.240470
0.154500 0.244227
0.154750 0.249290
0.155000 0.249712
0.155250 0.245253
0.155500 0.241685
0.155750 0.243339
0.156000 0.248334
0.156250 0.250365
0.156500 0.246084
0.156750 0.239555
0.157000 0.236720
0.157250 0.238582
0.157500 0.240500
0.157750 0.237670
0.158000 0.231540
0.158250 0.227864
0.158500 0.229804
0.158750 0.234876
0.159000 0.237356
0.159250 0.234980
0.159500 0.231973
0.159750 0.233455
0.160000 0.239606
0.160250 0.245316
0.160500 0.245700
0.160750 0.242518
0.161000 0.241796
0.161250 0.246327
0.161500 0.252578
0.161750 0.254189
0.162000 0.249743
0.162250 0.244850
0.162500 0.245325
0.162750 0.251395
0.163000 0.257470
0.163250 0.257665
0.163500 0.253046
0.163750 0.249923
0.164000 0.251746
0.164250 0.255548
0.164500 0.255630
0.164750 0.251062
0.165000 0.247134
0.165250 0.248650
0.165500 0.254715
0.165750 0.259453
0.166000 0.258600
0.166250 0.255232
0.166500 0.255622
0.166750 0.261706
0.167000 0.268913
0.167250 0.270824
0.167500 0.267324
0.167750 0.264779
0.168000 0.267774
0.168250 0.274116
0.168500 0.277349
0.168750 0.274962
0.169000 0.272111
0.169250 0.274881
0.169500 0.283288
0.169750 0.290781
0.170000 0.290960
0.170250 0.285856
0.170500 0.283338
0.170750 0.287787
0.171000 0.295831
0.171250 0.299451
0.171500 0.295098
0.171750 0.288138
0.172000 0.285266
0.172250 0.286529
0.172500 0.285951
0.172750 0.279693
0.173000 0.271811
0.173250 0.269047
0.173500 0.273383
0.173750 0.280167
0.174000 0.282421
0.174250 0.279137
0.174500 0.276508
0.174750 0.279682
0.175000 0.286745
0.175250 0.290213
0.175500 0.285578
0.175750 0.277243
0.176000 0.272277
0.176250 0.272098
0.176500 0.271925
0.176750 0.267493
0.177000 0.261351
0.177250 0.259663
0.177500 0.265180
0.177750 0.274483
0.178000 0.280414
0.178250 0.279227
0.178500 0.275039
0.178750 0.274555
0.179000 0.279494
0.179250 0.285013
0.179500 0.285442
0.179750 0.281992
0.180000 0.281144
0.180250 0.286318
0.180500 0.294025
0.180750 0.297761
0.181000 0.296601
0.181250 0.297199
0.181500 0.306249
0.181750 0.324070
0.182000 0.343282
0.182250 0.353455
0.182500 0.351433
0.182750 0.344383
0.183000 0.339237
0.183250 0.334436
0.183500 0.324828
0.183750 0.311610
0.184000 0.301709
0.184250 0.298904
0.184500 0.299479
0.184750 0.296053
0.185000 0.286609
0.185250 0.277071
0.185500 0.273649
0.185750 0.276467
0.186000 0.279607
0.186250 0.277281
0.186500 0.271086
0.186750 0.267732
0.187000 0.270888
0.187250 0.277432
0.187500 0.280233
0.187750 0.276349
0.188000 0.270965
0.188250 0.270658
0.188500 0.276291
0.188750 0.282376
0.189000 0.282995
0.189250 0.279335
0.189500 0.277784
0.189750 0.281313
0.190000 0.285675
0.190250 0.284156
0.190500 0.276601
0.190750 0.269939
0.191000 0.269742
0.191250 0.274908
0.191500 0.278821
0.191750 0.276353
0.192000 0.270240
0.192250 0.267151
0.192500 0.269586
0.192750 0.273499
0.193000 0.273145
0.193250 0.268769
0.193500 0.266501
0.193750 0.270807
0.194000 0.279682
0.194250 0.285957
0.194500 0.284813
0.194750 0.279953
0.195000 0.278632
0.195250 0.283148
0.195500 0.288717
0.195750 0.289066
0.196000 0.284883
0.196250 0.282987
0.196500 0.287608
0.196750 0.295699
0.197000 0.299808
0.197250 0.296751
0.197500 0.291744
0.197750 0.291245
0.198000 0.295016
0.198250 0.296141
0.198500 0.289299
0.198750 0.278083
0.199000 0.270256
0.199250 0.269082
0.199500 0.270878
0.199750 0.269245
0.200000 0.262981
0.200250 0.258861
0.200500 0.260227
0.200750 0.264339
0.201000 0.266801
0.201250 0.266228
0.201500 0.264765
0.201750 0.264637
0.202000 0.265834
0.202250 0.266849
0.202500 0.266704
0.202750 0.265883
0.203000 0.265471
0.203250 0.265965
0.203500 0.267052
0.203750 0.268236
0.204000 0.269420
0.204250 0.270871
0.204500 0.272793
0.204750 0.275079
0.205000 0.277440
0.205250 0.279677
0.205500 0.281780
0.205750 0.283813
0.206000 0.285766
0.206250 0.287545
0.206500 0.289077
0.206750 0.290366
0.207000 0.291473
0.207250 0.292435
0.207500 0.293238
0.207750 0.293845
0.208000 0.294240
0.208250 0.294439
0.208500 0.294475
0.208750 0.294385
0.209000 0.294206
0.209250 0.293986
0.209500 0.293782
0.209750 0.293649
0.210000 0.293621
0.210250 0.293709
0.210500 0.293903
0.210750 0.294180
0.211000 0.294502
0.211250 0.294825
0.211500 0.295102
0.211750 0.295290
0.212000 0.295360
0.212250 0.295299
0.212500 0.295112
0.212750 0.294812
0.213000 0.294418
0.213250 0.293949
0.213500 0.293425
0.213750 0.292856
0.214000 0.292254
0.214250 0.291623
0.214500 0.290967
0.214750 0.290291
0.215000 0.289597
0.215250 0.288892
0.215500 0.288182
0.215750 0.287473
0.216000 0.286774
0.216250 0.286094
0.216500 0.285442
0.216750 0.284828
0.217000 0.284259
0.217250 0.283744
0.217500 0.283289
0.217750 0.282899
0.218000 0.282578
0.218250 0.282327
0.218500 0.282145
0.218750 0.282032
0.219000 0.281981
0.219250 0.281989
0.219500 0.282048
0.219750 0.282152
0.220000 0.282292
0.220250 0.282461
0.220500 0.282653
0.220750 0.282863
0.221000 0.283085
0.221250 0.283317
0.221500 0.283556
0.221750 0.283801
0.222000 0.284053
0.222250 0.284311
0.222500 0.284578
0.222750 0.284855
0.223000 0.285143
0.223250 0.285446
0.223500 0.285765
0.223750 0.286101
0.224000 0.286454
0.224250 0.286826
0.224500 0.287216
0.224750 0.287622
0.225000 0.288042
0.225250 0.288476
0.225500 0.288919
0.225750 0.289370
0.226000 0.289826
0.226250 0.290286
0.226500 0.290747
0.226750 0.291208
0.227000 0.291668
0.227250 0.292127
0.227500 0.292586
0.227750 0.293043
0.228000 0.293500
0.228250 0.293958
0.228500 0.294416
0.228750 0.294875
0.229000 0.295336
0.229250 0.295798
0.229500 0.296260
0.229750 0.296723
0.230000 0.297185
0.230250 0.297644
0.230500 0.298101
0.230750 0.298552
0.231000 0.298998
0.231250 0.299435
0.231500 0.299864
0.231750 0.300282
0.232000 0.300690
0.232250 0.301085
0.232500 0.301469
0.232750 0.301839
0.233000 0.302198
0.233250 0.302544
0.233500 0.302879
0.233750 0.303203
0.234000 0.303516
0.234250 0.303820
0.234500 0.304114
0.234750 0.304402
0.235000 0.304682
0.235250 0.304955
0.235500 0.305223
0.235750 0.305486
0.236000 0.305745
0.236250 0.305999
0.236500 0.306251
0.236750 0.306499
0.237000 0.306745
0.237250 0.306989
0.237500 0.307231
0.237750 0.307471
0.238000 0.307711
0.238250 0.307951
0.238500 0.308190
0.238750 0.308430
0.239000 0.308670
0.239250 0.308912
0.239500 0.309155
0.239750 0.309401
0.240000 0.309648
0.240250 0.309899
0.240500 0.310152
0.240750 0.310408
0.241000 0.310668
0.241250 0.310931
0.241500 0.311198
0.241750 0.311470
0.242000 0.311745
0.242250 0.312024
0.242500 0.312308
0.242750 0.312596
0.243000 0.312889
0.243250 0.313186
0.243500 0.313487
0.243750 0.313793
0.244000 0.314103
0.244250 0.314418
0.244500 0.314737
0.244750 0.315060
0.245000 0.315387
0.245250 0.315718
0.245500 0.316052
0.245750 0.316389
0.246000 0.316728
0.246250 0.317070
0.246500 0.317413
0.246750 0.317758
0.247000 0.318103
0.247250 0.318449
0.247500 0.318794
0.247750 0.319139
0.248000 0.319482
0.248250 0.319824
0.248500 0.320164
0.248750 0.320502
0.249000 0.320836
0.249250 0.321168
0.249500 0.321497
0.249750 0.321823
0.250000 0.322145
0.250250 0.322464
0.250500 0.322780
0.250750 0.323092
0.251000 0.323401
0.251250 0.323707
0.251500 0.324010
0.251750 0.324310
0.252000 0.324607
0.252250 0.324902
0.252500 0.325194
0.252750 0.325484
0.253000 0.325771
0.253250 0.326056
0.253500 0.326338
0.253750 0.326618
0.254000 0.326895
0.254250 0.327169
0.254500 0.327440
0.254750 0.327707
0.255000 0.327971
0.255250 0.328230
0.255500 0.328485
0.255750 0.328735
0.256000 0.328980
0.256250 0.329219
0.256500 0.329451
0.256750 0.329676
0.257000 0.329894
0.257250 0.330104
0.257500 0.330306
0.257750 0.330500
0.258000 0.330684
0.258250 0.330858
0.258500 0.331023
0.258750 0.331179
0.259000 0.331324
0.259250 0.331459
0.259500 0.331584
0.259750 0.331699
0.260000 0.331804
0.260250 0.331899
0.260500 0.331985
0.260750 0.332062
0.261000 0.332130
0.261250 0.332190
0.261500 0.332242
0.261750 0.332287
0.262000 0.332325
0.262250 0.332357
0.262500 0.332384
0.262750 0.332406
0.263000 0.332423
0.263250 0.332438
0.263500 0.332449
0.263750 0.332458
0.264000 0.332466
0.264250 0.332472
0.264500 0.332479
0.264750 0.332485
0.265000 0.332492
0.265250 0.332501
0.265500 0.332511
0.265750 0.332524
0.266000 0.332539
0.266250 0.332557
0.266500 0.332579
0.266750 0.332605
0.267000 0.332634
0.267250 0.332668
0.267500 0.332707
0.267750 0.332750
0.268000 0.332798
0.268250 0.332851
0.268500 0.332910
0.268750 0.332974
0.269000 0.333044
0.269250 0.333119
0.269500 0.333199
0.269750 0.333285
0.270000 0.333377
0.270250 0.333474
0.270500 0.333577
0.270750 0.333685
0.271000 0.333799
0.271250 0.333917
0.271500 0.334042
0.271750 0.334171
0.272000 0.334305
0.272250 0.334445
0.272500 0.334589
0.272750 0.334737
0.273000 0.334891
0.273250 0.335048
0.273500 0.335210
0.273750 0.335377
0.274000 0.335547
0.274250 0.335721
0.274500 0.335899
0.274750 0.336080
0.275000 0.336264
0.275250 0.336452
0.275500 0.336643
0.275750 0.336838
0.276000 0.337034
0.276250 0.337234
0.276500 0.337436
0.276750 0.337640
0.277000 0.337847
0.277250 0.338056
0.277500 0.338266
0.277750 0.338479
0.278000 0.338693
0.278250 0.338908
0.278500 0.339125
0.278750 0.339343
0.279000 0.339562
0.279250 0.339782
0.279500 0.340003
0.279750 0.340225
0.280000 0.340447
0.280250 0.340669
0.280500 0.340892
0.280750 0.341115
0.281000 0.341338
0.281250 0.341561
0.281500 0.341784
0.281750 0.342006
0.282000 0.342228
0.282250 0.342450
0.282500 0.342671
0.282750 0.342891
0.283000 0.343111
0.283250 0.343329
0.283500 0.343547
0.283750 0.343764
0.284000 0.343979
0.284250 0.344194
0.284500 0.344407
0.284750 0.344619
0.285000 0.344830
0.285250 0.345039
0.285500 0.345247
0.285750 0.345454
0.286000 0.345659
0.286250 0.345862
0.286500 0.346064
0.286750 0.346265
0.287000 0.346463
0.287250 0.346660
0.287500 0.346856
0.287750 0.347049
0.288000 0.347241
0.288250 0.347432
0.288500 0.347620
0.288750 0.347807
0.289000 0.347992
0.289250 0.348175
0.289500 0.348357
0.289750 0.348537
0.290000 0.348715
0.290250 0.348891
0.290500 0.349065
0.290750 0.349238
0.291000 0.349409
0.291250 0.349578
0.291500 0.349746
0.291750 0.349912
0.292000 0.350076
0.292250 0.350239
0.292500 0.350400
0.292750 0.350559
0.293000 0.350717
0.293250 0.350873
0.293500 0.351028
0.293750 0.351182
0.294000 0.351334
0.294250 0.351485
0.294500 0.351634
0.294750 0.351783
0.295000 0.351930
0.295250 0.352076
0.295500 0.352221
0.295750 0.352365
0.296000 0.352508
0.296250 0.352651
0.296500 0.352792
0.296750 0.352933
0.297000 0.353073
0.297250 0.353212
0.297500 0.353351
0.297750 0.353490
0.298000 0.353628
0.298250 0.353766
0.298500 0.353903
0.298750 0.354040
0.299000 0.354177
0.299250 0.354314
0.299500 0.354450
0.299750 0.354586
0.300000 0.354723
0.300250 0.354859
0.300500 0.354996
0.300750 0.355132
0.301000 0.355269
0.301250 0.355405
0.301500 0.355542
0.301750 0.355679
0.302000 0.355816
0.302250 0.355953
0.302500 0.356091
0.302750 0.356229
0.303000 0.356367
0.303250 0.356505
0.303500 0.356643
0.303750 0.356782
0.304000 0.356921
0.304250 0.357060
0.304500 0.357200
0.304750 0.357340
0.305000 0.357480
0.305250 0.357620
0.305500 0.357761
0.305750 0.357902
0.306000 0.358043
0.306250 0.358185
0.306500 0.358327
0.306750 0.358469
0.307000 0.358612
0.307250 0.358755
0.307500 0.358898
0.307750 0.359042
0.308000 0.359185
0.308250 0.359330
0.308500 0.359474
0.308750 0.359619
0.309000 0.359765
0.309250 0.359910
0.309500 0.360057
0.309750 0.360203
0.310000 0.360350
0.310250 0.360498
0.310500 0.360645
0.310750 0.360794
0.311000 0.360942
0.311250 0.361092
0.311500 0.361242
0.311750 0.361392
0.312000 0.361543
0.312250 0.361694
0.312500 0.361846
0.312750 0.361999
0.313000 0.362152
0.313250 0.362306
0.313500 0.362461
0.313750 0.362616
0.314000 0.362772
0.314250 0.362929
0.314500 0.363086
0.314750 0.363245
0.315000 0.363404
0.315250 0.363564
0.315500 0.363725
0.315750 0.363886
0.316000 0.364049
0.316250 0.364213
0.316500 0.364377
0.316750 0.364543
0.317000 0.364709
0.317250 0.364877
0.317500 0.365045
0.317750 0.365215
0.318000 0.365385
0.318250 0.365557
0.318500 0.365730
0.318750 0.365904
0.319000 0.366079
0.319250 0.366255
0.319500 0.366432
0.319750 0.366610
0.320000 0.366790
0.320250 0.366971
0.320500 0.367152
0.320750 0.367335
0.321000 0.367520
0.321250 0.367705
0.321500 0.367892
0.321750 0.368079
0.322000 0.368268
0.322250 0.368458
0.322500 0.368649
0.322750 0.368842
0.323000 0.369035
0.323250 0.369230
0.323500 0.369425
0.323750 0.369622
0.324000 0.369820
0.324250 0.370019
0.324500 0.370219
0.324750 0.370420
0.325000 0.370622
0.325250 0.370825
0.325500 0.371029
0.325750 0.371234
0.326000 0.371439
0.326250 0.371646
0.326500 0.371854
0.326750 0.372063
0.327000 0.372272
0.327250 0.372482
0.327500 0.372693
0.327750 0.372905
0.328000 0.373118
0.328250 0.373331
0.328500 0.373545
0.328750 0.373760
0.329000 0.373976
0.329250 0.374192
0.329500 0.374409
0.329750 0.374626
0.330000 0.374844
0.330250 0.375063
0.330500 0.375282
0.330750 0.375502
0.331000 0.375722
0.331250 0.375943
0.331500 0.376164
0.331750 0.376386
0.332000 0.376609
0.332250 0.376831
0.332500 0.377054
0.332750 0.377278
0.333000 0.377502
0.333250 0.377726
0.333500 0.377951
0.333750 0.378176
0.334000 0.378402
0.334250 0.378628
0.334500 0.378854
0.334750 0.379081
0.335000 0.379308
0.335250 0.379535
0.335500 0.379762
0.335750 0.379990
0.336000 0.380218
0.336250 0.380447
0.336500 0.380676
0.336750 0.380905
0.337000 0.381134
0.337250 0.381363
0.337500 0.381593
0.337750 0.381823
0.338000 0.382054
0.338250 0.382284
0.338500 0.382515
0.338750 0.382746
0.339000 0.382978
0.339250 0.383209
0.339500 0.383441
0.339750 0.383673
0.340000 0.383905
0.340250 0.384138
0.340500 0.384370
0.340750 0.384603
0.341000 0.384836
0.341250 0.385070
0.341500 0.385303
0.341750 0.385537
0.342000 0.385771
0.342250 0.386005
0.342500 0.386239
0.342750 0.386473
0.343000 0.386708
0.343250 0.386943
0.343500 0.387177
0.343750 0.387412
0.344000 0.387648
0.344250 0.387883
0.344500 0.388118
0.344750 0.388354
0.345000 0.388589
0.345250 0.388825
0.345500 0.389060
0.345750 0.389296
0.346000 0.389532
0.346250 0.389768
0.346500 0.390004
0.346750 0.390240
0.347000 0.390476
0.347250 0.390712
0.347500 0.390948
0.347750 0.391184
0.348000 0.391420
0.348250 0.391656
0.348500 0.391892
0.348750 0.392128
0.349000 0.392364
0.349250 0.392600
0.349500 0.392836
0.349750 0.393072
0.350000 0.393307
0.350250 0.393543
0.350500 0.393778
0.350750 0.394014
0.351000 0.394249
0.351250 0.394484
0.351500 0.394719
0.351750 0.394954
0.352000 0.395188
0.352250 0.395423
0.352500 0.395657
0.352750 0.395892
0.353000 0.396126
0.353250 0.396359
0.353500 0.396593
0.353750 0.396827
0.354000 0.397060
0.354250 0.397293
0.354500 0.397526
0.354750 0.397758
0.355000 0.397991
0.355250 0.398223
0.355500 0.398455
0.355750 0.398686
0.356000 0.398918
0.356250 0.399149
0.356500 0.399380
0.356750 0.399610
0.357000 0.399841
0.357250 0.400071
0.357500 0.400301
0.357750 0.400530
0.358000 0.400759
0.358250 0.400988
0.358500 0.401217
0.358750 0.401445
0.359000 0.401673
0.359250 0.401900
0.359500 0.402127
0.359750 0.402354
0.360000 0.402581
0.360250 0.402807
0.360500 0.403032
0.360750 0.403257
0.361000 0.403482
0.361250 0.403707
0.361500 0.403931
0.361750 0.404154
0.362000 0.404377
0.362250 0.404600
0.362500 0.404822
0.362750 0.405044
0.363000 0.405265
0.363250 0.405485
0.363500 0.405705
0.363750 0.405925
0.364000 0.406144
0.364250 0.406362
0.364500 0.406580
0.364750 0.406797
0.365000 0.407014
0.365250 0.407230
0.365500 0.407445
0.365750 0.407660
0.366000 0.407874
0.366250 0.408088
0.366500 0.408300
0.366750 0.408513
0.367000 0.408724
0.367250 0.408935
0.367500 0.409145
0.367750 0.409354
0.368000 0.409562
0.368250 0.409770
0.368500 0.409977
0.368750 0.410184
0.369000 0.410389
0.369250 0.410594
0.369500 0.410798
0.369750 0.411001
0.370000 0.411203
0.370250 0.411405
0.370500 0.411606
0.370750 0.411806
0.371000 0.412005
0.371250 0.412203
0.371500 0.412401
0.371750 0.412598
0.372000 0.412794
0.372250 0.412989
0.372500 0.413183
0.372750 0.413377
0.373000 0.413570
0.373250 0.413762
0.373500 0.413953
0.373750 0.414143
0.374000 0.414333
0.374250 0.414522
0.374500 0.414710
0.374750 0.414897
0.375000 0.415084
0.375250 0.415270
0.375500 0.415455
0.375750 0.415639
0.376000 0.415823
0.376250 0.416005
0.376500 0.416188
0.376750 0.416369
0.377000 0.416550
0.377250 0.416730
0.377500 0.416909
0.377750 0.417088
0.378000 0.417266
0.378250 0.417443
0.378500 0.417620
0.378750 0.417796
0.379000 0.417971
0.379250 0.418146
0.379500 0.418321
0.379750 0.418494
0.380000 0.418667
0.380250 0.418840
0.380500 0.419012
0.380750 0.419183
0.381000 0.419354
0.381250 0.419525
0.381500 0.419695
0.381750 0.419864
0.382000 0.420033
0.382250 0.420202
0.382500 0.420370
0.382750 0.420537
0.383000 0.420705
0.383250 0.420871
0.383500 0.421038
0.383750 0.421204
0.384000 0.421369
0.384250 0.421534
0.384500 0.421699
0.384750 0.421864
0.385000 0.422028
0.385250 0.422191
0.385500 0.422355
0.385750 0.422518
0.386000 0.422680
0.386250 0.422843
0.386500 0.423005
0.386750 0.423167
0.387000 0.423328
0.387250 0.423490
0.387500 0.423651
0.387750 0.423811
0.388000 0.423972
0.388250 0.424132
0.388500 0.424292
0.388750 0.424452
0.389000 0.424611
0.389250 0.424771
0.389500 0.424930
0.389750 0.425089
0.390000 0.425247
0.390250 0.425406
0.390500 0.425564
0.390750 0.425722
0.391000 0.425880
0.391250 0.426038
0.391500 0.426195
0.391750 0.426352
0.392000 0.426509
0.392250 0.426666
0.392500 0.426823
0.392750 0.426980
0.393000 0.427136
0.393250 0.427292
0.393500 0.427448
0.393750 0.427604
0.394000 0.427760
0.394250 0.427916
0.394500 0.428071
0.394750 0.428226
0.395000 0.428381
0.395250 0.428536
0.395500 0.428691
0.395750 0.428845
0.396000 0.429000
0.396250 0.429154
0.396500 0.429308
0.396750 0.429462
0.397000 0.429615
0.397250 0.429769
0.397500 0.429922
0.397750 0.430075
0.398000 0.430228
0.398250 0.430381
0.398500 0.430533
0.398750 0.430685
0.399000 0.430837
0.399250 0.430989
0.399500 0.431141
0.399750 0.431292
0.400000 0.431443
0.400250 0.431594
0.400500 0.431745
0.400750 0.431895
0.401000 0.432046
0.401250 0.432196
0.401500 0.432345
0.401750 0.432495
0.402000 0.432644
0.402250 0.432793
0.402500 0.432941
0.402750 0.433089
0.403000 0.433237
0.403250 0.433385
0.403500 0.433532
0.403750 0.433679
0.404000 0.433826
0.404250 0.433972
0.404500 0.434118
0.404750 0.434264
0.405000 0.434409
0.405250 0.434554
0.405500 0.434699
0.405750 0.434843
0.406000 0.434987
0.406250 0.435130
0.406500 0.435273
0.406750 0.435415
0.407000 0.435557
0.407250 0.435699
0.407500 0.435840
0.407750 0.435981
0.408000 0.436121
0.408250 0.436261
0.408500 0.436400
0.408750 0.436539
0.409000 0.436677
0.409250 0.436815
0.409500 0.436953
0.409750 0.437089
0.410000 0.437226
0.410250 0.437362
0.410500 0.437497
0.410750 0.437632
0.411000 0.437766
0.411250 0.437899
0.411500 0.438032
0.411750 0.438165
0.412000 0.438297
0.412250 0.438428
0.412500 0.438559
0.412750 0.438689
0.413000 0.438818
0.413250 0.438947
0.413500 0.439075
0.413750 0.439203
0.414000 0.439330
0.414250 0.439457
0.414500 0.439582
0.414750 0.439708
0.415000 0.439832
0.415250 0.439956
0.415500 0.440079
0.415750 0.440202
0.416000 0.440324
0.416250 0.440445
0.416500 0.440566
0.416750 0.440686
0.417000 0.440805
0.417250 0.440924
0.417500 0.441042
0.417750 0.441159
0.418000 0.441276
0.418250 0.441392
0.418500 0.441507
0.418750 0.441622
0.419000 0.441736
0.419250 0.441849
0.419500 0.441962
0.419750 0.442074
0.420000 0.442185
0.420250 0.442296
0.420500 0.442405
0.420750 0.442515
0.421000 0.442623
0.421250 0.442731
0.421500 0.442839
0.421750 0.442945
0.422000 0.443051
0.422250 0.443156
0.422500 0.443261
0.422750 0.443365
0.423000 0.443468
0.423250 0.443571
0.423500 0.443673
0.423750 0.443774
0.424000 0.443875
0.424250 0.443975
0.424500 0.444074
0.424750 0.444173
0.425000 0.444271
0.425250 0.444369
0.425500 0.444466
0.425750 0.444562
0.426000 0.444657
0.426250 0.444752
0.426500 0.444847
0.426750 0.444940
0.427000 0.445034
0.427250 0.445126
0.427500 0.445218
0.427750 0.445309
0.428000 0.445400
0.428250 0.445490
0.428500 0.445580
0.428750 0.445669
0.429000 0.445757
0.429250 0.445845
0.429500 0.445932
0.429750 0.446019
0.430000 0.446105
0.430250 0.446190
0.430500 0.446275
0.430750 0.446360
0.431000 0.446444
0.431250 0.446527
0.431500 0.446610
0.431750 0.446692
0.432000 0.446773
0.432250 0.446855
0.432500 0.446935
0.432750 0.447015
0.433000 0.447095
0.433250 0.447174
0.433500 0.447252
0.433750 0.447330
0.434000 0.447408
0.434250 0.447485
0.434500 0.447561
0.434750 0.447637
0.435000 0.447713
0.435250 0.447787
0.435500 0.447862
0.435750 0.447936
0.436000 0.448009
0.436250 0.448082
0.436500 0.448155
0.436750 0.448227
0.437000 0.448299
0.437250 0.448370
0.437500 0.448440
0.437750 0.448510
0.438000 0.448580
0.438250 0.448649
0.438500 0.448718
0.438750 0.448787
0.439000 0.448855
0.439250 0.448922
0.439500 0.448989
0.439750 0.449056
0.440000 0.449122
0.440250 0.449188
0.440500 0.449253
0.440750 0.449318
0.441000 0.449382
0.441250 0.449446
0.441500 0.449510
0.441750 0.449573
0.442000 0.449636
0.442250 0.449698
0.442500 0.449760
0.442750 0.449822
0.443000 0.449883
0.443250 0.449944
0.443500 0.450004
0.443750 0.450064
0.444000 0.450124
0.444250 0.450183
0.444500 0.450242
0.444750 0.450300
0.445000 0.450359
0.445250 0.450416
0.445500 0.450474
0.445750 0.450531
0.446000 0.450588
0.446250 0.450644
0.446500 0.450700
0.446750 0.450755
0.447000 0.450811
0.447250 0.450866
0.447500 0.450920
0.447750 0.450975
0.448000 0.451029
0.448250 0.451082
0.448500 0.451136
0.448750 0.451189
0.449000 0.451241
0.449250 0.451294
0.449500 0.451346
0.449750 0.451397
0.450000 0.451449
0.450250 0.451500
0.450500 0.451551
0.450750 0.451601
0.451000 0.451652
0.451250 0.451702
0.451500 0.451751
0.451750 0.451801
0.452000 0.451850
0.452250 0.451899
0.452500 0.451948
0.452750 0.451996
0.453000 0.452044
0.453250 0.452092
0.453500 0.452140
0.453750 0.452187
0.454000 0.452234
0.454250 0.452281
0.454500 0.452328
0.454750 0.452374
0.455000 0.452420
0.455250 0.452466
0.455500 0.452512
0.455750 0.452558
0.456000 0.452603
0.456250 0.452648
0.456500 0.452693
0.456750 0.452738
0.457000 0.452783
0.457250 0.452827
0.457500 0.452871
0.457750 0.452915
0.458000 0.452959
0.458250 0.453003
0.458500 0.453046
0.458750 0.453089
0.459000 0.453133
0.459250 0.453176
0.459500 0.453218
0.459750 0.453261
0.460000 0.453304
0.460250 0.453346
0.460500 0.453388
0.460750 0.453430
0.461000 0.453472
0.461250 0.453514
0.461500 0.453556
0.461750 0.453598
0.462000 0.453639
0.462250 0.453681
0.462500 0.453722
0.462750 0.453763
0.463000 0.453804
0.463250 0.453845
0.463500 0.453886
0.463750 0.453927
0.464000 0.453967
0.464250 0.454008
0.464500 0.454048
0.464750 0.454089
0.465000 0.454129
0.465250 0.454170
0.465500 0.454210
0.465750 0.454250
0.466000 0.454290
0.466250 0.454330
0.466500 0.454370
0.466750 0.454410
0.467000 0.454450
0.467250 0.454490
0.467500 0.454529
0.467750 0.454569
0.468000 0.454609
0.468250 0.454649
0.468500 0.454688
0.468750 0.454728
0.469000 0.454767
0.469250 0.454807
0.469500 0.454846
0.469750 0.454886
0.470000 0.454925
0.470250 0.454965
0.470500 0.455004
0.470750 0.455044
0.471000 0.455083
0.471250 0.455123
0.471500 0.455162
0.471750 0.455202
0.472000 0.455241
0.472250 0.455281
0.472500 0.455320
0.472750 0.455360
0.473000 0.455399
0.473250 0.455439
0.473500 0.455478
0.473750 0.455518
0.474000 0.455558
0.474250 0.455597
0.474500 0.455637
0.474750 0.455677
0.475000 0.455716
0.475250 0.455756
0.475500 0.455796
0.475750 0.455836
0.476000 0.455875
0.476250 0.455915
0.476500 0.455955
0.476750 0.455995
0.477000 0.456035
0.477250 0.456075
0.477500 0.456115
0.477750 0.456155
0.478000 0.456196
0.478250 0.456236
0.478500 0.456276
0.478750 0.456316
0.479000 0.456357
0.479250 0.456397
0.479500 0.456438
0.479750 0.456478
0.480000 0.456519
0.480250 0.456560
0.480500 0.456600
0.480750 0.456641
0.481000 0.456682
0.481250 0.456723
0.481500 0.456764
0.481750 0.456805
0.482000 0.456846
0.482250 0.456887
0.482500 0.456928
0.482750 0.456969
0.483000 0.457011
0.483250 0.457052
0.483500 0.457094
0.483750 0.457135
0.484000 0.457177
0.484250 0.457218
0.484500 0.457260
0.484750 0.457302
0.485000 0.457344
0.485250 0.457386
0.485500 0.457428
0.485750 0.457470
0.486000 0.457512
0.486250 0.457554
0.486500 0.457596
0.486750 0.457639
0.487000 0.457681
0.487250 0.457723
0.487500 0.457766
0.487750 0.457808
0.488000 0.457851
0.488250 0.457894
0.488500 0.457936
0.488750 0.457979
0.489000 0.458022
0.489250 0.458065
0.489500 0.458108
0.489750 0.458151
0.490000 0.458194
0.490250 0.458237
0.490500 0.458280
0.490750 0.458323
0.491000 0.458367
0.491250 0.458410
0.491500 0.458453
0.491750 0.458497
0.492000 0.458540
0.492250 0.458584
0.492500 0.458627
0.492750 0.458671
0.493000 0.458714
0.493250 0.458758
0.493500 0.458802
0.493750 0.458846
0.494000 0.458889
0.494250 0.458933
0.494500 0.458977
0.494750 0.459021
0.495000 0.459065
0.495250 0.459109
0.495500 0.459153
0.495750 0.459197
0.496000 0.459241
0.496250 0.459285
0.496500 0.459329
0.496750 0.459373
0.497000 0.459418
0.497250 0.459462
0.497500 0.459506
0.497750 0.459550
0.498000 0.459594
0.498250 0.459639
0.498500 0.459683
0.498750 0.459727
0.499000 0.459772
0.499250 0.459816
0.499500 0.459860
0.499750 0.459905
0.500000 0.459949
0.509900 0.461538
0.519800 0.463041
0.529700 0.464540
0.539600 0.466205
0.549500 0.468188
0.559400 0.470574
0.569300 0.473394
0.579200 0.476579
0.589100 0.479914
0.599000 0.483108
0.608900 0.485938
0.618800 0.488345
0.628700 0.490451
0.638600 0.492503
0.648500 0.494739
0.658400 0.497261
0.668300 0.500020
0.678200 0.502878
0.688100 0.505672
0.698000 0.508267
0.707900 0.510639
0.717800 0.512915
0.727700 0.515298
0.737600 0.517971
0.747500 0.521033
0.757400 0.524428
0.767300 0.527873
0.777200 0.530929
0.787100 0.533289
0.797000 0.535042
0.806900 0.536596
0.816800 0.538368
0.826700 0.540565
0.836600 0.543184
0.846500 0.546114
0.856400 0.549286
0.866300 0.552794
0.876200 0.556907
0.886100 0.561920
0.896000 0.567990
0.905900 0.575066
0.915800 0.582898
0.925700 0.591078
0.935600 0.599123
0.945500 0.606625
0.955400 0.613318
0.965300 0.619038
0.975200 0.623695
0.985100 0.627322
0.995000 0.630091
1.004900 0.632248
1.014800 0.634025
1.024700 0.635582
1.034600 0.637049
1.044500 0.638546
1.054400 0.640199
1.064300 0.642146
1.074200 0.644475
1.084100 0.647106
1.094000 0.649787
1.103900 0.652199
1.113800 0.654032
1.123700 0.655095
1.133600 0.655471
1.143500 0.655557
1.153400 0.655882
1.163300 0.656836
1.173200 0.658528
1.183100 0.660839
1.193000 0.663604
1.202900 0.666703
1.212800 0.670020
1.222700 0.673327
1.232600 0.676170
1.242500 0.677938
1.252400 0.678291
1.262300 0.677534
1.272200 0.676405
1.282100 0.675535
1.292000 0.675181
1.301900 0.675315
1.311800 0.675742
1.321700 0.676119
1.331600 0.675967
1.341500 0.674786
1.351400 0.672308
1.361300 0.668749
1.371200 0.664777
1.381100 0.661153
1.391000 0.658384
1.400900 0.656673
1.410800 0.656057
1.420700 0.656474
1.430600 0.657729
1.440500 0.659493
1.450400 0.661468
1.460300 0.663581
1.470200 0.666002
1.480100 0.668989
1.490000 0.672737
1.499900 0.677295
1.509800 0.682511
1.519700 0.688106
1.529600 0.693870
1.539500 0.699759
1.549400 0.705787
1.559300 0.711921
1.569200 0.718117
1.579100 0.724402
1.589000 0.730871
1.598900 0.737623
1.608800 0.744676
1.618700 0.751988
1.628600 0.759595
1.638500 0.767731
1.648400 0.776734
1.658300 0.786801
1.668200 0.797817
1.678100 0.809424
1.688000 0.821275
1.697900 0.833183
1.707800 0.845046
1.717700 0.856761
1.727600 0.868291
1.737500 0.879724
1.747400 0.891205
1.757300 0.902868
1.767200 0.914905
1.777100 0.927556
1.787000 0.940863
1.796900 0.954475
1.806800 0.967762
1.816700 0.980138
1.826600 0.991362
1.836500 1.001668
1.846400 1.011684
1.856300 1.022196
1.866200 1.033866
1.876100 1.046961
1.886000 1.061250
1.895900 1.076247
1.905800 1.091706
1.915700 1.107889
1.925600 1.125477
1.935500 1.145196
1.945400 1.167219
1.955300 1.190560
1.965200 1.212914
1.975100 1.231273
1.985000 1.243385
1.994900 1.249131
2.004800 1.250442
2.014700 1.249922
2.024600 1.249686
2.034500 1.251034
2.044400 1.254593
2.054300 1.260552
2.064200 1.268845
2.074100 1.279231
2.084000 1.291289
2.093900 1.304474
2.103800 1.318244
2.113700 1.332125
2.123600 1.345704
2.133500 1.358626
2.143400 1.370566
2.153300 1.381268
2.163200 1.390731
2.173100 1.399394
2.183000 1.407995
2.192900 1.417190
2.202800 1.427196
2.212700 1.437674
2.222600 1.447849
2.232500 1.456815
2.242400 1.463874
2.252300 1.468791
2.262200 1.471818
2.272100 1.473448
2.282000 1.474178
2.291900 1.474412
2.301800 1.474468
2.311700 1.474546
2.321600 1.474709
2.331500 1.475014
2.341400 1.475703
2.351300 1.477058
2.361200 1.479005
2.371100 1.480939
2.381000 1.481992
2.390900 1.481513
2.400800 1.479444
2.410700 1.476353
2.420600 1.473057
2.430500 1.470103
2.440400 1.467480
2.450300 1.464781
2.460200 1.461619
2.470100 1.457831
2.480000 1.453383
2.489900 1.448340
2.499800 1.442955
2.509700 1.437537
2.519600 1.432095
2.529500 1.426251
2.539400 1.419577
2.549300 1.411896
2.559200 1.403277
2.569100 1.393933
2.579000 1.384165
2.588900 1.374291
2.598800 1.364521
2.608700 1.354866
2.618600 1.345139
2.628500 1.335087
2.638400 1.324579
2.648300 1.313682
2.658200 1.302598
2.668100 1.291606
2.678000 1.281054
2.687900 1.271294
2.697800 1.262525
2.707700 1.254708
2.717600 1.247710
2.727500 1.241487
2.737400 1.236076
2.747300 1.231515
2.757200 1.227839
2.767100 1.225070
2.777000 1.223102
2.786900 1.221642
2.796800 1.220268
2.806700 1.218607
2.816600 1.216602
2.826500 1.214637
2.836400 1.213312
2.846300 1.213107
2.856200 1.214276
2.866100 1.216896
2.876000 1.220955
2.885900 1.226389
2.895800 1.232840
2.905700 1.239365
2.915600 1.244681
2.925500 1.247752
2.935400 1.248052
2.945300 1.245378
2.955200 1.239631
2.965100 1.230826
2.975000 1.219263
2.984900 1.205717
2.994800 1.191374
3.004700 1.177372
3.014600 1.164363
3.024500 1.152622
3.034400 1.142478
3.044300 1.134507
3.054200 1.129348
3.064100 1.127361
3.074000 1.128429
3.083900 1.131965
3.093800 1.137046
3.103700 1.142523
3.113600 1.147213
3.123500 1.150362
3.133400 1.152081
3.143300 1.153189
3.153200 1.154598
3.163100 1.156739
3.173000 1.159360
3.182900 1.161691
3.192800 1.162811
3.202700 1.162147
3.212600 1.159938
3.222500 1.157143
3.232400 1.154806
3.242300 1.153479
3.252200 1.152945
3.262100 1.152239
3.272000 1.150072
3.281900 1.145553
3.291800 1.138749
3.301700 1.130656
3.311600 1.122647
3.321500 1.115814
3.331400 1.110566
3.341300 1.106664
3.351200 1.103518
3.361100 1.100472
3.371000 1.097000
3.380900 1.092838
3.390800 1.088023
3.400700 1.082842
3.410600 1.077688
3.420500 1.072890
3.430400 1.068587
3.440300 1.064726
3.450200 1.061154
3.460100 1.057708
3.470000 1.054249
3.479900 1.050738
3.489800 1.047291
3.499700 1.044120
3.509600 1.041336
3.519500 1.038841
3.529400 1.036435
3.539300 1.033985
3.549200 1.031482
3.559100 1.028966
3.569000 1.026458
3.578900 1.024012
3.588800 1.021791
3.598700 1.020028
3.608600 1.018822
3.618500 1.018030
3.628400 1.017408
3.638300 1.016864
3.648200 1.016585
3.658100 1.016920
3.668000 1.018113
3.677900 1.020050
3.687800 1.022244
3.697700 1.024178
3.707600 1.025799
3.717500 1.027632
3.727400 1.030337
3.737300 1.034102
3.747200 1.038377
3.757100 1.042116
3.767000 1.044374
3.776900 1.044743
3.786800 1.043241
3.796700 1.039956
3.806600 1.034967
3.816500 1.028524
3.826400 1.021132
3.836300 1.013372
3.846200 1.005766
3.856100 0.998832
3.866000 0.993121
3.875900 0.989107
3.885800 0.987062
3.895700 0.987012
3.905600 0.988735
3.915500 0.991714
3.925400 0.995089
3.935300 0.997759
3.945200 0.998774
3.955100 0.997804
3.965000 0.995205
3.974900 0.991511
3.984800 0.986907
3.994700 0.981294
4.004600 0.974826
4.014500 0.968167
4.024400 0.962161
4.034300 0.957299
4.044200 0.953265
4.054100 0.948715
4.064000 0.941664
4.073900 0.930618
4.083800 0.915623
4.093700 0.898205
4.103600 0.880363
4.113500 0.863635
4.123400 0.848784
4.133300 0.835876
4.143200 0.824522
4.153100 0.814222
4.163000 0.804670
4.172900 0.795831
4.182800 0.787821
4.192700 0.780787
4.202600 0.774897
4.212500 0.770368
4.222400 0.767391
4.232300 0.765968
4.242200 0.765787
4.252100 0.766321
4.262000 0.767082
4.271900 0.767841
4.281800 0.768637
4.291700 0.769594
4.301600 0.770753
4.311500 0.772064
4.321400 0.773516
4.331300 0.775201
4.341200 0.777251
4.351100 0.779704
4.361000 0.782419
4.370900 0.785199
4.380800 0.787983
4.390700 0.790831
4.400600 0.793726
4.410500 0.796439
4.420400 0.798593
4.430300 0.799822
4.440200 0.799900
4.450100 0.798898
4.460000 0.797308
4.469900 0.795815
4.479800 0.794901
4.489700 0.794597
4.499600 0.794422
4.509500 0.793436
4.519400 0.790573
4.529300 0.785245
4.539200 0.777766
4.549100 0.769110
4.559000 0.760292
4.568900 0.751932
4.578800 0.744238
4.588700 0.737201
4.598600 0.730701
4.608500 0.724535
4.618400 0.718507
4.628300 0.712603
4.638200 0.707061
4.648100 0.702193
4.658000 0.698165
4.667900 0.694874
4.677800 0.691978
4.687700 0.688996
4.697600 0.685444
4.707500 0.681040
4.717400 0.675922
4.727300 0.670631
4.737200 0.665775
4.747100 0.661668
4.757000 0.658215
4.766900 0.655068
4.776800 0.651972
4.786700 0.649015
4.796600 0.646543
4.806500 0.644826
4.816400 0.643810
4.826300 0.643149
4.836200 0.642471
4.846100 0.641623
4.856000 0.640653
4.865900 0.639568
4.875800 0.638194
4.885700 0.636267
4.895600 0.633661
4.905500 0.630433
4.915400 0.626665
4.925300 0.622402
4.935200 0.617823
4.945100 0.613399
4.955000 0.609789
4.964900 0.607537
4.974800 0.606831
4.984700 0.607434
4.994600 0.608725
5.004500 0.609772
5.014400 0.609490
5.024300 0.607070
5.034200 0.602470
5.044100 0.596471
5.054000 0.590155
5.063900 0.584323
5.073800 0.579249
5.083700 0.574773
5.093600 0.570518
5.103500 0.566101
5.113400 0.561374
5.123300 0.556604
5.133200 0.552332
5.143100 0.549042
5.153000 0.546946
5.162900 0.545995
5.172800 0.545910
5.182700 0.546205
5.192600 0.546305
5.202500 0.545806
5.212400 0.544674
5.222300 0.543166
5.232200 0.541541
5.242100 0.539875
5.252000 0.538120
5.261900 0.536263
5.271800 0.534441
5.281700 0.532955
5.291600 0.532167
5.301500 0.532335
5.311400 0.533509
5.321300 0.535534
5.331200 0.538125
5.341100 0.540954
5.351000 0.543732
5.360900 0.546273
5.370800 0.548481
5.380700 0.550273
5.390600 0.551551
5.400500 0.552266
5.410400 0.552434
5.420300 0.552041
5.430200 0.550930
5.440100 0.548823
5.450000 0.545585
5.459900 0.541465
5.469800 0.536970
5.479700 0.532560
5.489600 0.528475
5.499500 0.524781
5.509400 0.521450
5.519300 0.518372
5.529200 0.515367
5.539100 0.512287
5.549000 0.509104
5.558900 0.505882
5.568800 0.502733
5.578700 0.499825
5.588600 0.497381
5.598500 0.495583
5.608400 0.494480
5.618300 0.494015
5.628200 0.494092
5.638100 0.494639
5.648000 0.495613
5.657900 0.496947
5.667800 0.498490
5.677700 0.500082
5.687600 0.501717
5.697500 0.503563
5.707400 0.505807
5.717300 0.508504
5.727200 0.511578
5.737100 0.514893
5.747000 0.518266
5.756900 0.521482
5.766800 0.524335
5.776700 0.526704
5.786600 0.528587
5.796500 0.530084
5.806400 0.531327
5.816300 0.532391
5.826200 0.533293
5.836100 0.534117
5.846000 0.535069
5.855900 0.536362
5.865800 0.538103
5.875700 0.540309
5.885600 0.542923
5.895500 0.545805
5.905400 0.548766
5.915300 0.551649
5.925200 0.554384
5.935100 0.557010
5.945000 0.559617
5.954900 0.562199
5.964800 0.564558
5.974700 0.566336
5.984600 0.567175
5.994500 0.566930
6.004400 0.565811
6.014300 0.564308
6.024200 0.562910
6.034100 0.561873
6.044000 0.561237
6.053900 0.561002
6.063800 0.561182
6.073700 0.561686
6.083600 0.562224
6.093500 0.562335
6.103400 0.561597
6.113300 0.559864
6.123200 0.557336
6.133100 0.554421
6.143000 0.551549
6.152900 0.549063
6.162800 0.547222
6.172700 0.546198
6.182600 0.546001
6.192500 0.546425
6.202400 0.547156
6.212300 0.547948
6.222200 0.548707
6.232100 0.549463
6.242000 0.550285
6.251900 0.551193
6.261800 0.552168
6.271700 0.553223
6.281600 0.554402
6.291500 0.555686
6.301400 0.556945
6.311300 0.557962
6.321200 0.558510
6.331100 0.558448
6.341000 0.557786
6.350900 0.556654
6.360800 0.555219
6.370700 0.553624
6.380600 0.551971
6.390500 0.550283
6.400400 0.548464
6.410300 0.546310
6.420200 0.543586
6.430100 0.540152
6.440000 0.536080
6.449900 0.531623
6.459800 0.527014
6.469700 0.522278
6.479600 0.517217
6.489500 0.511612
6.499400 0.505410
6.509300 0.498735
6.519200 0.491731
6.529100 0.484435
6.539000 0.476808
6.548900 0.468883
6.558800 0.460868
6.568700 0.453070
6.578600 0.445739
6.588500 0.438981
6.598400 0.432780
6.608300 0.427081
6.618200 0.421881
6.628100 0.417222
6.638000 0.413090
6.647900 0.409348
6.657800 0.405811
6.667700 0.402389
6.677600 0.399145
6.687500 0.396240
6.697400 0.393857
6.707300 0.392121
6.717200 0.390994
6.727100 0.390271
6.737000 0.389706
6.746900 0.389140
6.756800 0.388515
6.766700 0.387805
6.776600 0.386944
6.786500 0.385846
6.796400 0.384449
6.806300 0.382694
6.816200 0.380487
6.826100 0.377721
6.836000 0.374382
6.845900 0.370638
6.855800 0.366801
6.865700 0.363209
6.875600 0.360109
6.885500 0.357572
6.895400 0.355465
6.905300 0.353508
6.915200 0.351407
6.925100 0.349025
6.935000 0.346445
6.944900 0.343877
6.954800 0.341520
6.964700 0.339491
6.974600 0.337814
6.984500 0.336447
6.994400 0.335358
7.004300 0.334562
7.014200 0.334130
7.024100 0.334131
7.034000 0.334566
7.043900 0.335347
7.053800 0.336311
7.063700 0.337272
7.073600 0.338101
7.083500 0.338787
7.093400 0.339415
7.103300 0.340067
7.113200 0.340808
7.123100 0.341719
7.133000 0.342877
7.142900 0.344297
7.152800 0.345905
7.162700 0.347610
7.172600 0.349360
7.182500 0.351134
7.192400 0.352912
7.202300 0.354662
7.212200 0.356352
7.222100 0.357944
7.232000 0.359364
7.241900 0.360472
7.251800 0.361116
7.261700 0.361232
7.271600 0.360904
7.281500 0.360270
7.291400 0.359408
7.301300 0.358356
7.311200 0.357213
7.321100 0.356151
7.331000 0.355310
7.340900 0.354667
7.350800 0.354003
7.360700 0.353020
7.370600 0.351512
7.380500 0.349470
7.390400 0.347033
7.400300 0.344397
7.410200 0.341745
7.420100 0.339187
7.430000 0.336733
7.439900 0.334343
7.449800 0.331987
7.459700 0.329648
7.469600 0.327306
7.479500 0.324912
7.489400 0.322396
7.499300 0.319715
7.509200 0.316912
7.519100 0.314112
7.529000 0.311414
7.538900 0.308793
7.548800 0.306111
7.558700 0.303205
7.568600 0.299964
7.578500 0.296376
7.588400 0.292531
7.598300 0.288557
7.608200 0.284543
7.618100 0.280526
7.628000 0.276537
7.637900 0.272683
7.647800 0.269134
7.657700 0.266057
7.667600 0.263543
7.677500 0.261598
7.687400 0.260138
7.697300 0.259006
7.707200 0.258032
7.717100 0.257136
7.727000 0.256362
7.736900 0.255805
7.746800 0.255513
7.756700 0.255436
7.766600 0.255426
7.776500 0.255280
7.786400 0.254836
7.796300 0.254051
7.806200 0.252997
7.816100 0.251805
7.826000 0.250606
7.835900 0.249491
7.845800 0.248488
7.855700 0.247584
7.865600 0.246767
7.875500 0.246034
7.885400 0.245365
7.895300 0.244718
7.905200 0.244086
7.915100 0.243526
7.925000 0.243135
7.934900 0.242990
7.944800 0.243101
7.954700 0.243411
7.964600 0.243847
7.974500 0.244365
7.984400 0.244960
7.994300 0.245648
8.004200 0.246445
8.014100 0.247337
8.024000 0.248278
8.033900 0.249193
8.043800 0.249961
8.053700 0.250429
8.063600 0.250478
8.073500 0.250113
8.083400 0.249480
8.093300 0.248802
8.103200 0.248302
8.113100 0.248151
8.123000 0.248425
8.132900 0.249070
8.142800 0.249905
8.152700 0.250703
8.162600 0.251275
8.172500 0.251522
8.182400 0.251446
8.192300 0.251111
8.202200 0.250621
8.212100 0.250135
8.222000 0.249868
8.231900 0.250036
8.241800 0.250733
8.251700 0.251870
8.261600 0.253200
8.271500 0.254402
8.281400 0.255152
8.291300 0.255174
8.301200 0.254265
8.311100 0.252329
8.321000 0.249474
8.330900 0.246045
8.340800 0.242501
8.350700 0.239210
8.360600 0.236353
8.370500 0.233965
8.380400 0.232026
8.390300 0.230512
8.400200 0.229383
8.410100 0.228572
8.420000 0.228006
8.429900 0.227641
8.439800 0.227457
8.449700 0.227438
8.459600 0.227576
8.469500 0.227891
8.479400 0.228405
8.489300 0.229120
8.499200 0.230010
8.509100 0.231032
8.519000 0.232146
8.528900 0.233322
8.538800 0.234547
8.548700 0.235808
8.558600 0.237072
8.568500 0.238281
8.578400 0.239366
8.588300 0.240274
8.598200 0.240988
8.608100 0.241508
8.618000 0.241824
8.627900 0.241914
8.637800 0.241811
8.647700 0.241647
8.657600 0.241596
8.667500 0.241785
8.677400 0.242263
8.687300 0.243016
8.697200 0.243966
8.707100 0.244991
8.717000 0.245962
8.726900 0.246786
8.736800 0.247430
8.746700 0.247913
8.756600 0.248273
8.766500 0.248558
8.776400 0.248848
8.786300 0.249259
8.796200 0.249895
8.806100 0.250785
8.816000 0.251862
8.825900 0.252978
8.835800 0.253950
8.845700 0.254642
8.855600 0.255004
8.865500 0.255053
8.875400 0.254840
8.885300 0.254446
8.895200 0.253968
8.905100 0.253499
8.915000 0.253162
8.924900 0.253116
8.934800 0.253508
8.944700 0.254410
8.954600 0.255758
8.964500 0.257359
8.974400 0.258959
8.984300 0.260336
8.994200 0.261384
9.004100 0.262159
9.014000 0.262828
9.023900 0.263556
9.033800 0.264428
9.043700 0.265462
9.053600 0.266644
9.063500 0.267959
9.073400 0.269383
9.083300 0.270870
9.093200 0.272345
9.103100 0.273722
9.113000 0.274937
9.122900 0.276006
9.132800 0.277027
9.142700 0.278098
9.152600 0.279199
9.162500 0.280192
9.172400 0.280962
9.182300 0.281500
9.192200 0.281840
9.202100 0.281953
9.212000 0.281737
9.221900 0.281129
9.231800 0.280169
9.241700 0.278981
9.251600 0.277742
9.261500 0.276694
9.271400 0.276083
9.281300 0.276040
9.291200 0.276508
9.301100 0.277255
9.311000 0.277956
9.320900 0.278298
9.330800 0.278112
9.340700 0.277425
9.350600 0.276398
9.360500 0.275216
9.370400 0.274013
9.380300 0.272868
9.390200 0.271835
9.400100 0.270995
9.410000 0.270461
9.419900 0.270329
9.429800 0.270615
9.439700 0.271243
9.449600 0.272102
9.459500 0.273090
9.469400 0.274110
9.479300 0.275092
9.489200 0.276018
9.499100 0.276928
9.509000 0.277898
9.518900 0.279036
9.528800 0.280445
9.538700 0.282150
9.548600 0.284060
9.558500 0.286040
9.568400 0.288006
9.578300 0.289946
9.588200 0.291836
9.598100 0.293529
9.608000 0.294689
9.617900 0.294822
9.627800 0.293474
9.637700 0.290484
9.647600 0.286136
9.657500 0.280977
9.667400 0.275533
9.677300 0.270189
9.687200 0.265221
9.697100 0.260805
9.707000 0.256981
9.716900 0.253653
9.726800 0.250669
9.736700 0.247974
9.746600 0.245661
9.756500 0.243866
9.766400 0.242647
9.776300 0.241942
9.786200 0.241587
9.796100 0.241375
9.806000 0.241151
9.815900 0.240880
9.825800 0.240603
9.835700 0.240336
9.845600 0.240013
9.855500 0.239494
9.865400 0.238623
9.875300 0.237339
9.885200 0.235755
9.895100 0.234108
9.905000 0.232636
9.914900 0.231494
9.924800 0.230743
9.934700 0.230381
9.944600 0.230365
9.954500 0.230624
9.964400 0.231072
9.974300 0.231634
9.984200 0.232300
9.994100 0.233189
10.004000 0.234512
10.013900 0.236436
10.023800 0.238899
10.033700 0.241496
10.043600 0.243533
10.053500 0.244265
10.063400 0.243211
10.073300 0.240328
10.083200 0.235947
10.093100 0.230619
10.103000 0.224955
10.112900 0.219462
10.122800 0.214453
10.132700 0.210053
10.142600 0.206278
10.152500 0.203130
10.162400 0.200629
10.172300 0.198783
10.182200 0.197559
10.192100 0.196893
10.202000 0.196728
10.211900 0.197021
10.221800 0.197716
10.231700 0.198714
10.241600 0.199855
10.251500 0.200918
10.261400 0.201642
10.271300 0.201782
10.281200 0.201135
10.291100 0.199513
10.301000 0.196799
10.310900 0.193122
10.320800 0.188899
10.330700 0.184643
10.340600 0.180718
10.350500 0.177259
10.360400 0.174236
10.370300 0.171569
10.380200 0.169205
10.390100 0.167132
10.400000 0.165334
10.409900 0.163768
10.419800 0.162377
10.429700 0.161124
10.439600 0.160004
10.449500 0.159017
10.459400 0.158154
10.469300 0.157383
10.479200 0.156632
10.489100 0.155794
10.499000 0.154774
10.508900 0.153567
10.518800 0.152251
10.528700 0.150910
10.538600 0.149567
10.548500 0.148207
10.558400 0.146847
10.568300 0.145556
10.578200 0.144434
10.588100 0.143558
10.598000 0.142946
10.607900 0.142551
10.617800 0.142277
10.627700 0.142021
10.637600 0.141691
10.647500 0.141216
10.657400 0.140580
10.667300 0.139809
10.677200 0.138945
10.687100 0.138035
10.697000 0.137138
10.706900 0.136328
10.716800 0.135684
10.726700 0.135258
10.736600 0.135076
10.746500 0.135148
10.756400 0.135469
10.766300 0.136029
10.776200 0.136796
10.786100 0.137699
10.796000 0.138606
10.805900 0.139350
10.815800 0.139804
10.825700 0.139908
10.835600 0.139653
10.845500 0.139051
10.855400 0.138143
10.865300 0.137027
10.875200 0.135826
10.885100 0.134633
10.895000 0.133473
10.904900 0.132317
10.914800 0.131114
10.924700 0.129815
10.934600 0.128392
10.944500 0.126873
10.954400 0.125349
10.964300 0.123930
10.974200 0.122688
10.984100 0.121640
10.994000 0.120763
11.003900 0.120021
11.013800 0.119392
11.023700 0.118869
11.033600 0.118441
11.043500 0.118070
11.053400 0.117711
11.063300 0.117347
11.073200 0.117000
11.083100 0.116719
11.093000 0.116564
11.102900 0.116593
11.112800 0.116843
11.122700 0.117290
11.132600 0.117834
11.142500 0.118331
11.152400 0.118651
11.162300 0.118709
11.172200 0.118469
11.182100 0.117954
11.192000 0.117256
11.201900 0.116488
11.211800 0.115712
11.221700 0.114934
11.231600 0.114144
11.241500 0.113345
11.251400 0.112539
11.261300 0.111741
11.271200 0.110976
11.281100 0.110264
11.291000 0.109606
11.300900 0.108982
11.310800 0.108378
11.320700 0.107778
11.330600 0.107138
11.340500 0.106378
11.350400 0.105427
11.360300 0.104279
11.370200 0.102990
11.380100 0.101654
11.390000 0.100359
11.399900 0.099164
11.409800 0.098093
11.419700 0.097147
11.429600 0.096329
11.439500 0.095643
11.449400 0.095073
11.459300 0.094560
11.469200 0.094016
11.479100 0.093381
11.489000 0.092665
11.498900 0.091928
11.508800 0.091215
11.518700 0.090527
11.528600 0.089847
11.538500 0.089159
11.548400 0.088456
11.558300 0.087732
11.568200 0.086981
11.578100 0.086191
11.588000 0.085340
11.597900 0.084407
11.607800 0.083406
11.617700 0.082391
11.627600 0.081433
11.637500 0.080574
11.647400 0.079803
11.657300 0.079060
11.667200 0.078260
11.677100 0.077337
11.687000 0.076274
11.696900 0.075107
11.706800 0.073896
11.716700 0.072686
11.726600 0.071500
11.736500 0.070354
11.746400 0.069268
11.756300 0.068265
11.766200 0.067348
11.776100 0.066492
11.786000 0.065653
11.795900 0.064796
11.805800 0.063921
11.815700 0.063049
11.825600 0.062207
11.835500 0.061421
11.845400 0.060716
11.855300 0.060109
11.865200 0.059604
11.875100 0.059196
11.885000 0.058875
11.894900 0.058620
11.904800 0.058391
11.914700 0.058124
11.924600 0.057748
11.934500 0.057231
11.944400 0.056601
11.954300 0.055922
11.964200 0.055245
11.974100 0.054596
11.984000 0.053993
11.993900 0.053445
12.003800 0.052944
12.013700 0.052468
12.023600 0.051993
12.033500 0.051505
12.043400 0.051003
12.053300 0.050488
12.063200 0.049953
12.073100 0.049384
12.083000 0.048769
12.092900 0.048115
12.102800 0.047434
12.112700 0.046744
12.122600 0.046059
12.132500 0.045397
12.142400 0.044773
12.152300 0.044199
12.162200 0.043679
12.172100 0.043213
12.182000 0.042799
12.191900 0.042435
12.201800 0.042111
12.211700 0.041811
12.221600 0.041517
12.231500 0.041215
12.241400 0.040898
12.251300 0.040569
12.261200 0.040233
12.271100 0.039898
12.281000 0.039574
12.290900 0.039275
12.300800 0.039006
12.310700 0.038767
12.320600 0.038554
12.330500 0.038359
12.340400 0.038174
12.350300 0.037986
12.360200 0.037780
12.370100 0.037539
12.380000 0.037242
12.389900 0.036862
12.399800 0.036387
12.409700 0.035828
12.419600 0.035225
12.429500 0.034611
12.439400 0.033994
12.449300 0.033379
12.459200 0.032779
12.469100 0.032217
12.479000 0.031707
12.488900 0.031249
12.498800 0.030828
12.508700 0.030430
12.518600 0.030045
12.528500 0.029669
12.538400 0.029310
12.548300 0.028979
12.558200 0.028683
12.568100 0.028423
12.578000 0.028189
12.587900 0.027975
12.597800 0.027782
12.607700 0.027616
12.617600 0.027482
12.627500 0.027386
12.637400 0.027327
12.647300 0.027305
12.657200 0.027311
12.667100 0.027330
12.677000 0.027341
12.686900 0.027326
12.696800 0.027271
12.706700 0.027176
12.716600 0.027058
12.726500 0.026943
12.736400 0.026858
12.746300 0.026810
12.756200 0.026796
12.766100 0.026807
12.776000 0.026842
12.785900 0.026898
12.795800 0.026956
12.805700 0.026979
12.815600 0.026923
12.825500 0.026774
12.835400 0.026555
12.845300 0.026305
12.855200 0.026055
12.865100 0.025811
12.875000 0.025569
12.884900 0.025327
12.894800 0.025093
12.904700 0.024871
12.914600 0.024654
12.924500 0.024425
12.934400 0.024169
12.944300 0.023879
12.954200 0.023563
12.964100 0.023233
12.974000 0.022903
12.983900 0.022577
12.993800 0.022251
13.003700 0.021910
13.013600 0.021545
13.023500 0.021155
13.033400 0.020757
13.043300 0.020375
13.053200 0.020022
13.063100 0.019704
13.073000 0.019412
13.082900 0.019136
13.092800 0.018865
13.102700 0.018595
13.112600 0.018332
13.122500 0.018084
13.132400 0.017862
13.142300 0.017670
13.152200 0.017505
13.162100 0.017359
13.172000 0.017230
13.181900 0.017116
13.191800 0.017017
13.201700 0.016923
13.211600 0.016825
13.221500 0.016711
13.231400 0.016578
13.241300 0.016428
13.251200 0.016272
13.261100 0.016124
13.271000 0.016004
13.280900 0.015926
13.290800 0.015892
13.300700 0.015898
13.310600 0.015924
13.320500 0.015939
13.330400 0.015907
13.340300 0.015796
13.350200 0.015605
13.360100 0.015364
13.370000 0.015112
13.379900 0.014883
13.389800 0.014693
13.399700 0.014545
13.409600 0.014438
13.419500 0.014362
13.429400 0.014304
13.439300 0.014251
13.449200 0.014193
13.459100 0.014132
13.469000 0.014071
13.478900 0.014016
13.488800 0.013965
13.498700 0.013916
13.508600 0.013856
13.518500 0.013768
13.528400 0.013647
13.538300 0.013500
13.548200 0.013346
13.558100 0.013198
13.568000 0.013060
13.577900 0.012927
13.587800 0.012791
13.597700 0.012647
13.607600 0.012502
13.617500 0.012362
13.627400 0.012232
13.637300 0.012111
13.647200 0.011998
13.657100 0.011893
13.667000 0.011798
13.676900 0.011716
13.686800 0.011647
13.696700 0.011585
13.706600 0.011526
13.716500 0.011465
13.726400 0.011405
13.736300 0.011350
13.746200 0.011305
13.756100 0.011274
13.766000 0.011262
13.775900 0.011273
13.785800 0.011307
13.795700 0.011361
13.805600 0.011432
13.815500 0.011514
13.825400 0.011607
13.835300 0.011708
13.845200 0.011817
13.855100 0.011931
13.865000 0.012047
13.874900 0.012166
13.884800 0.012283
13.894700 0.012391
13.904600 0.012470
13.914500 0.012488
13.924400 0.012423
13.934300 0.012275
13.944200 0.012067
13.954100 0.011823
13.964000 0.011567
13.973900 0.011321
13.983800 0.011102
13.993700 0.010919
14.003600 0.010775
14.013500 0.010662
14.023400 0.010574
14.033300 0.010496
14.043200 0.010418
14.053100 0.010337
14.063000 0.010251
14.072900 0.010162
14.082800 0.010067
14.092700 0.009968
14.102600 0.009872
14.112500 0.009785
14.122400 0.009713
14.132300 0.009653
14.142200 0.009603
14.152100 0.009555
14.162000 0.009499
14.171900 0.009429
14.181800 0.009343
14.191700 0.009245
14.201600 0.009144
14.211500 0.009048
14.221400 0.008966
14.231300 0.008901
14.241200 0.008847
14.251100 0.008791
14.261000 0.008716
14.270900 0.008611
14.280800 0.008481
14.290700 0.008334
14.300600 0.008183
14.310500 0.008036
14.320400 0.007897
14.330300 0.007769
14.340200 0.007649
14.350100 0.007533
14.360000 0.007420
14.369900 0.007314
14.379800 0.007219
14.389700 0.007138
14.399600 0.007074
14.409500 0.007024
14.419400 0.006986
14.429300 0.006955
14.439200 0.006924
14.449100 0.006889
14.459000 0.006847
14.468900 0.006797
14.478800 0.006741
14.488700 0.006684
14.498600 0.006630
14.508500 0.006585
14.518400 0.006551
14.528300 0.006531
14.538200 0.006523
14.548100 0.006522
14.558000 0.006522
14.567900 0.006517
14.577800 0.006504
14.587700 0.006482
14.597600 0.006448
14.607500 0.006405
14.617400 0.006353
14.627300 0.006298
14.637200 0.006248
14.647100 0.006206
14.657000 0.006176
14.666900 0.006153
14.676800 0.006133
14.686700 0.006110
14.696600 0.006083
14.706500 0.006055
14.716400 0.006029
14.726300 0.006005
14.736200 0.005979
14.746100 0.005941
14.756000 0.005880
14.765900 0.005790
14.775800 0.005678
14.785700 0.005556
14.795600 0.005435
14.805500 0.005322
14.815400 0.005218
14.825300 0.005126
14.835200 0.005046
14.845100 0.004980
14.855000 0.004925
14.864900 0.004878
14.874800 0.004837
14.884700 0.004797
14.894600 0.004758
14.904500 0.004720
14.914400 0.004681
14.924300 0.004640
14.934200 0.004596
14.944100 0.004548
14.954000 0.004498
14.963900 0.004449
14.973800 0.004402
14.983700 0.004360
14.993600 0.004321
15.003500 0.004287
15.013400 0.004256
15.023300 0.004229
15.033200 0.004205
15.043100 0.004186
15.053000 0.004171
15.062900 0.004155
15.072800 0.004136
15.082700 0.004109
15.092600 0.004075
15.102500 0.004034
15.112400 0.003990
15.122300 0.003944
15.132200 0.003897
15.142100 0.003852
15.152000 0.003810
15.161900 0.003770
15.171800 0.003735
15.181700 0.003706
15.191600 0.003683
15.201500 0.003665
15.211400 0.003653
15.221300 0.003647
15.231200 0.003648
15.241100 0.003657
15.251000 0.003674
15.260900 0.003694
15.270800 0.003711
15.280700 0.003717
15.290600 0.003705
15.300500 0.003674
15.310400 0.003631
15.320300 0.003586
15.330200 0.003547
15.340100 0.003517
15.350000 0.003498
15.359900 0.003489
15.369800 0.003488
15.379700 0.003494
15.389600 0.003505
15.399500 0.003522
15.409400 0.003545
15.419300 0.003571
15.429200 0.003601
15.439100 0.003635
15.449000 0.003672
15.458900 0.003716
15.468800 0.003765
15.478700 0.003816
15.488600 0.003863
15.498500 0.003898
15.508400 0.003916
15.518300 0.003915
15.528200 0.003893
15.538100 0.003853
15.548000 0.003800
15.557900 0.003740
15.567800 0.003682
15.577700 0.003629
15.587600 0.003584
15.597500 0.003544
15.607400 0.003509
15.617300 0.003475
15.627200 0.003436
15.637100 0.003390
15.647000 0.003336
15.656900 0.003278
15.666800 0.003221
15.676700 0.003168
15.686600 0.003118
15.696500 0.003073
15.706400 0.003033
15.716300 0.002997
15.726200 0.002963
15.736100 0.002932
15.746000 0.002902
15.755900 0.002873
15.765800 0.002845
15.775700 0.002820
15.785600 0.002796
15.795500 0.002774
15.805400 0.002755
15.815300 0.002737
15.825200 0.002722
15.835100 0.002711
15.845000 0.002704
15.854900 0.002698
15.864800 0.002689
15.874700 0.002677
15.884600 0.002660
15.894500 0.002640
15.904400 0.002617
15.914300 0.002590
15.924200 0.002558
15.934100 0.002522
15.944000 0.002486
15.953900 0.002449
15.963800 0.002414
15.973700 0.002382
15.983600 0.002354
15.993500 0.002328
16.003400 0.002305
16.013300 0.002284
16.023200 0.002265
16.033100 0.002248
16.043000 0.002232
16.052900 0.002217
16.062800 0.002200
16.072700 0.002182
16.082600 0.002161
16.092500 0.002140
16.102400 0.002118
16.112300 0.002096
16.122200 0.002076
16.132100 0.002058
16.142000 0.002042
16.151900 0.002030
16.161800 0.002020
16.171700 0.002011
16.181600 0.002003
16.191500 0.001992
16.201400 0.001980
16.211300 0.001969
16.221200 0.001958
16.231100 0.001948
16.241000 0.001937
16.250900 0.001925
16.260800 0.001910
16.270700 0.001894
16.280600 0.001876
16.290500 0.001858
16.300400 0.001841
16.310300 0.001823
16.320200 0.001805
16.330100 0.001787
16.340000 0.001767
16.349900 0.001748
16.359800 0.001729
16.369700 0.001711
16.379600 0.001694
16.389500 0.001678
16.399400 0.001663
16.409300 0.001649
16.419200 0.001637
16.429100 0.001626
16.439000 0.001616
16.448900 0.001606
16.458800 0.001597
16.468700 0.001588
16.478600 0.001578
16.488500 0.001569
16.498400 0.001561
16.508300 0.001553
16.518200 0.001546
16.528100 0.001539
16.538000 0.001532
16.547900 0.001525
16.557800 0.001518
16.567700 0.001511
16.577600 0.001504
16.587500 0.001498
16.597400 0.001492
16.607300 0.001486
16.617200 0.001479
16.627100 0.001472
16.637000 0.001465
16.646900 0.001458
16.656800 0.001450
16.666700 0.001443
16.676600 0.001435
16.686500 0.001427
16.696400 0.001419
16.706300 0.001411
16.716200 0.001404
16.726100 0.001397
16.736000 0.001392
16.745900 0.001386
16.755800 0.001380
16.765700 0.001374
16.775600 0.001368
16.785500 0.001361
16.795400 0.001355
16.805300 0.001348
16.815200 0.001343
16.825100 0.001337
16.835000 0.001332
16.844900 0.001326
16.854800 0.001321
16.864700 0.001315
16.874600 0.001310
16.884500 0.001304
16.894400 0.001299
16.904300 0.001294
16.914200 0.001289
16.924100 0.001284
16.934000 0.001278
16.943900 0.001273
16.953800 0.001267
16.963700 0.001260
16.973600 0.001254
16.983500 0.001248
16.993400 0.001242
17.003300 0.001236
17.013200 0.001230
17.023100 0.001225
17.033000 0.001220
17.042900 0.001215
17.052800 0.001210
17.062700 0.001205
17.072600 0.001200
17.082500 0.001195
17.092400 0.001191
17.102300 0.001187
17.112200 0.001182
17.122100 0.001178
17.132000 0.001175
17.141900 0.001171
17.151800 0.001167
17.161700 0.001163
17.171600 0.001159
17.181500 0.001156
17.191400 0.001152
17.201300 0.001149
17.211200 0.001146
17.221100 0.001142
17.231000 0.001139
17.240900 0.001136
17.250800 0.001133
17.260700 0.001131
17.270600 0.001128
17.280500 0.001125
17.290400 0.001122
17.300300 0.001119
17.310200 0.001116
17.320100 0.001113
17.330000 0.001110
17.339900 0.001107
17.349800 0.001104
17.359700 0.001101
17.369600 0.001097
17.379500 0.001094
17.389400 0.001091
17.399300 0.001087
17.409200 0.001084
17.419100 0.001080
17.429000 0.001077
17.438900 0.001074
17.448800 0.001071
17.458700 0.001067
17.468600 0.001064
17.478500 0.001061
17.488400 0.001058
17.498300 0.001055
17.508200 0.001053
17.518100 0.001050
17.528000 0.001047
17.537900 0.001045
17.547800 0.001042
17.557700 0.001040
17.567600 0.001038
17.577500 0.001036
17.587400 0.001034
17.597300 0.001032
17.607200 0.001029
17.617100 0.001026
17.627000 0.001023
17.636900 0.001020
17.646800 0.001017
17.656700 0.001013
17.666600 0.001010
17.676500 0.001007
17.686400 0.001004
17.696300 0.001001
17.706200 0.000998
17.716100 0.000996
17.726000 0.000993
17.735900 0.000991
17.745800 0.000988
17.755700 0.000986
17.765600 0.000984
17.775500 0.000982
17.785400 0.000980
17.795300 0.000978
17.805200 0.000976
17.815100 0.000974
17.825000 0.000971
17.834900 0.000969
17.844800 0.000967
17.854700 0.000965
17.864600 0.000963
17.874500 0.000961
17.884400 0.000958
17.894300 0.000956
17.904200 0.000954
17.914100 0.000952
17.924000 0.000950
17.933900 0.000948
17.943800 0.000945
17.953700 0.000943
17.963600 0.000940
17.973500 0.000937
17.983400 0.000935
17.993300 0.000933
18.003200 0.000930
18.013100 0.000928
18.023000 0.000926
18.032900 0.000924
18.042800 0.000922
18.052700 0.000920
18.062600 0.000918
18.072500 0.000916
18.082400 0.000914
18.092300 0.000912
18.102200 0.000910
18.112100 0.000908
18.122000 0.000906
18.131900 0.000904
18.141800 0.000902
18.151700 0.000901
18.161600 0.000899
18.171500 0.000897
18.181400 0.000895
18.191300 0.000893
18.201200 0.000892
18.211100 0.000890
18.221000 0.000888
18.230900 0.000887
18.240800 0.000885
18.250700 0.000884
18.260600 0.000882
18.270500 0.000881
18.280400 0.000879
18.290300 0.000877
18.300200 0.000875
18.310100 0.000873
18.320000 0.000871
18.329900 0.000869
18.339800 0.000867
18.349700 0.000866
18.359600 0.000864
18.369500 0.000862
18.379400 0.000861
18.389300 0.000859
18.399200 0.000858
18.409100 0.000856
18.419000 0.000855
18.428900 0.000853
18.438800 0.000851
18.448700 0.000850
18.458600 0.000848
18.468500 0.000847
18.478400 0.000846
18.488300 0.000844
18.498200 0.000843
18.508100 0.000842
18.518000 0.000841
18.527900 0.000839
18.537800 0.000838
18.547700 0.000837
18.557600 0.000836
18.567500 0.000834
18.577400 0.000833
18.587300 0.000832
18.597200 0.000830
18.607100 0.000829
18.617000 0.000827
18.626900 0.000826
18.636800 0.000824
18.646700 0.000823
18.656600 0.000821
18.666500 0.000820
18.676400 0.000818
18.686300 0.000817
18.696200 0.000815
18.706100 0.000813
18.716000 0.000812
18.725900 0.000811
18.735800 0.000809
18.745700 0.000808
18.755600 0.000806
18.765500 0.000805
18.775400 0.000804
18.785300 0.000802
18.795200 0.000801
18.805100 0.000799
18.815000 0.000798
18.824900 0.000797
18.834800 0.000795
18.844700 0.000794
18.854600 0.000793
18.864500 0.000792
18.874400 0.000791
18.884300 0.000789
18.894200 0.000788
18.904100 0.000787
18.914000 0.000786
18.923900 0.000785
18.933800 0.000784
18.943700 0.000783
18.953600 0.000782
18.963500 0.000781
18.973400 0.000780
18.983300 0.000778
18.993200 0.000777
19.003100 0.000775
19.013000 0.000773
19.022900 0.000772
19.032800 0.000770
19.042700 0.000769
19.052600 0.000767
19.062500 0.000766
19.072400 0.000764
19.082300 0.000763
19.092200 0.000762
19.102100 0.000761
19.112000 0.000759
19.121900 0.000758
19.131800 0.000757
19.141700 0.000755
19.151600 0.000754
19.161500 0.000753
19.171400 0.000752
19.181300 0.000751
19.191200 0.000750
19.201100 0.000749
19.211000 0.000748
19.220900 0.000746
19.230800 0.000745
19.240700 0.000744
19.250600 0.000743
19.260500 0.000742
19.270400 0.000740
19.280300 0.000739
19.290200 0.000738
19.300100 0.000737
19.310000 0.000736
19.319900 0.000734
19.329800 0.000733
19.339700 0.000732
19.349600 0.000731
19.359500 0.000730
19.369400 0.000729
19.379300 0.000728
19.389200 0.000727
19.399100 0.000726
19.409000 0.000725
19.418900 0.000724
19.428800 0.000723
19.438700 0.000722
19.448600 0.000721
19.458500 0.000720
19.468400 0.000719
19.478300 0.000718
19.488200 0.000716
19.498100 0.000715
19.508000 0.000714
19.517900 0.000713
19.527800 0.000712
19.537700 0.000711
19.547600 0.000710
19.557500 0.000709
19.567400 0.000708
19.577300 0.000707
19.587200 0.000706
19.597100 0.000705
19.607000 0.000704
19.616900 0.000703
19.626800 0.000702
19.636700 0.000701
19.646600 0.000700
19.656500 0.000699
19.666400 0.000698
19.676300 0.000697
19.686200 0.000696
19.696100 0.000695
19.706000 0.000694
19.715900 0.000693
19.725800 0.000692
19.735700 0.000691
19.745600 0.000690
19.755500 0.000688
19.765400 0.000687
19.775300 0.000686
19.785200 0.000685
19.795100 0.000684
19.805000 0.000683
19.814900 0.000682
19.824800 0.000681
19.834700 0.000681
19.844600 0.000680
19.854500 0.000679
19.864400 0.000678
19.874300 0.000677
19.884200 0.000676
19.894100 0.000676
19.904000 0.000675
19.913900 0.000674
19.923800 0.000673
19.933700 0.000672
19.943600 0.000671
19.953500 0.000670
19.963400 0.000669
19.973300 0.000668
19.983200 0.000667
19.993100 0.000665
20.003000 0.000664
20.012900 0.000663
20.022800 0.000662
20.032700 0.000661
20.042600 0.000660
20.052500 0.000659
20.062400 0.000659
20.072300 0.000658
20.082200 0.000657
20.092100 0.000656
20.102000 0.000655
20.111900 0.000654
20.121800 0.000653
20.131700 0.000652
20.141600 0.000651
20.151500 0.000650
20.161400 0.000650
20.171300 0.000649
20.181200 0.000648
20.191100 0.000647
20.201000 0.000646
20.210900 0.000645
20.220800 0.000644
20.230700 0.000643
20.240600 0.000643
20.250500 0.000642
20.260400 0.000641
20.270300 0.000640
20.280200 0.000639
20.290100 0.000639
20.300000 0.000638
20.309900 0.000637
20.319800 0.000636
20.329700 0.000635
20.339600 0.000634
20.349500 0.000633
20.359400 0.000633
20.369300 0.000632
20.379200 0.000631
20.389100 0.000630
20.399000 0.000629
20.408900 0.000628
20.418800 0.000627
20.428700 0.000627
20.438600 0.000626
20.448500 0.000625
20.458400 0.000624
20.468300 0.000623
20.478200 0.000623
20.488100 0.000622
20.498000 0.000621
20.507900 0.000620
20.517800 0.000619
20.527700 0.000619
20.537600 0.000618
20.547500 0.000617
20.557400 0.000616
20.567300 0.000615
20.577200 0.000615
20.587100 0.000614
20.597000 0.000613
20.606900 0.000612
20.616800 0.000611
20.626700 0.000611
20.636600 0.000610
20.646500 0.000609
20.656400 0.000608
20.666300 0.000608
20.676200 0.000607
20.686100 0.000606
20.696000 0.000605
20.705900 0.000605
20.715800 0.000604
20.725700 0.000603
20.735600 0.000602
20.745500 0.000602
20.755400 0.000601
20.765300 0.000600
20.775200 0.000599
20.785100 0.000599
20.795000 0.000598
20.804900 0.000597
20.814800 0.000596
20.824700 0.000596
20.834600 0.000595
20.844500 0.000594
20.854400 0.000593
20.864300 0.000593
20.874200 0.000592
20.884100 0.000591
20.894000 0.000591
20.903900 0.000590
20.913800 0.000589
20.923700 0.000588
20.933600 0.000588
20.943500 0.000587
20.953400 0.000587
20.963300 0.000586
20.973200 0.000585
20.983100 0.000584
20.993000 0.000584
21.002900 0.000583
21.012800 0.000582
21.022700 0.000581
21.032600 0.000581
21.042500 0.000580
21.052400 0.000579
21.062300 0.000579
21.072200 0.000578
21.082100 0.000577
21.092000 0.000576
21.101900 0.000576
21.111800 0.000575
21.121700 0.000574
21.131600 0.000574
21.141500 0.000573
21.151400 0.000572
21.161300 0.000571
21.171200 0.000571
21.181100 0.000570
21.191000 0.000569
21.200900 0.000569
21.210800 0.000568
21.220700 0.000567
21.230600 0.000567
21.240500 0.000566
21.250400 0.000565
21.260300 0.000565
21.270200 0.000564
21.280100 0.000563
21.290000 0.000563
21.299900 0.000562
21.309800 0.000561
21.319700 0.000561
21.329600 0.000560
21.339500 0.000559
21.349400 0.000559
21.359300 0.000558
21.369200 0.000557
21.379100 0.000557
21.389000 0.000556
21.398900 0.000555
21.408800 0.000555
21.418700 0.000554
21.428600 0.000553
21.438500 0.000553
21.448400 0.000552
21.458300 0.000551
21.468200 0.000551
21.478100 0.000550
21.488000 0.000549
21.497900 0.000549
21.507800 0.000548
21.517700 0.000548
21.527600 0.000547
21.537500 0.000546
21.547400 0.000546
21.557300 0.000545
21.567200 0.000544
21.577100 0.000544
21.587000 0.000543
21.596900 0.000542
21.606800 0.000542
21.616700 0.000541
21.626600 0.000541
21.636500 0.000540
21.646400 0.000539
21.656300 0.000539
21.666200 0.000538
21.676100 0.000537
21.686000 0.000537
21.695900 0.000536
21.705800 0.000536
21.715700 0.000535
21.725600 0.000534
21.735500 0.000534
21.745400 0.000533
21.755300 0.000533
21.765200 0.000532
21.775100 0.000531
21.785000 0.000531
21.794900 0.000530
21.804800 0.000530
21.814700 0.000529
21.824600 0.000528
21.834500 0.000528
21.844400 0.000527
21.854300 0.000527
21.864200 0.000526
21.874100 0.000525
21.884000 0.000525
21.893900 0.000524
21.903800 0.000523
21.913700 0.000523
21.923600 0.000522
21.933500 0.000522
21.943400 0.000521
21.953300 0.000520
21.963200 0.000520
21.973100 0.000519
21.983000 0.000519
21.992900 0.000518
22.002800 0.000518
22.012700 0.000517
22.022600 0.000516
22.032500 0.000516
22.042400 0.000515
22.052300 0.000515
22.062200 0.000514
22.072100 0.000514
22.082000 0.000513
22.091900 0.000512
22.101800 0.000512
22.111700 0.000511
22.121600 0.000511
22.131500 0.000510
22.141400 0.000510
22.151300 0.000509
22.161200 0.000508
22.171100 0.000508
22.181000 0.000507
22.190900 0.000507
22.200800 0.000506
22.210700 0.000506
22.220600 0.000505
22.230500 0.000504
22.240400 0.000504
22.250300 0.000503
22.260200 0.000503
22.270100 0.000502
22.280000 0.000502
22.289900 0.000501
22.299800 0.000501
22.309700 0.000500
22.319600 0.000500
22.329500 0.000499
22.339400 0.000498
22.349300 0.000498
22.359200 0.000497
22.369100 0.000497
22.379000 0.000496
22.388900 0.000496
22.398800 0.000495
22.408700 0.000495
22.418600 0.000494
22.428500 0.000494
22.438400 0.000493
22.448300 0.000492
22.458200 0.000492
22.468100 0.000491
22.478000 0.000491
22.487900 0.000490
22.497800 0.000490
22.507700 0.000489
22.517600 0.000489
22.527500 0.000488
22.537400 0.000488
22.547300 0.000487
22.557200 0.000487
22.567100 0.000486
22.577000 0.000486
22.586900 0.000485
22.596800 0.000485
22.606700 0.000484
22.616600 0.000484
22.626500 0.000483
22.636400 0.000483
22.646300 0.000482
22.656200 0.000481
22.666100 0.000481
22.676000 0.000480
22.685900 0.000480
22.695800 0.000479
22.705700 0.000479
22.715600 0.000478
22.725500 0.000478
22.735400 0.000477
22.745300 0.000477
22.755200 0.000476
22.765100 0.000476
22.775000 0.000475
22.784900 0.000475
22.794800 0.000474
22.804700 0.000474
22.814600 0.000473
22.824500 0.000473
22.834400 0.000472
22.844300 0.000472
22.854200 0.000471
22.864100 0.000471
22.874000 0.000470
22.883900 0.000470
22.893800 0.000469
22.903700 0.000469
22.913600 0.000468
22.923500 0.000468
22.933400 0.000467
22.943300 0.000467
22.953200 0.000466
22.963100 0.000466
22.973000 0.000466
22.982900 0.000465
22.992800 0.000465
23.002700 0.000464
23.012600 0.000464
23.022500 0.000463
23.032400 0.000463
23.042300 0.000462
23.052200 0.000462
23.062100 0.000461
23.072000 0.000461
23.081900 0.000460
23.091800 0.000460
23.101700 0.000459
23.111600 0.000459
23.121500 0.000458
23.131400 0.000458
23.141300 0.000457
23.151200 0.000457
23.161100 0.000456
23.171000 0.000456
23.180900 0.000455
23.190800 0.000455
23.200700 0.000455
23.210600 0.000454
23.220500 0.000454
23.230400 0.000453
23.240300 0.000453
23.250200 0.000452
23.260100 0.000452
23.270000 0.000451
23.279900 0.000451
23.289800 0.000450
23.299700 0.000450
23.309600 0.000449
23.319500 0.000449
23.329400 0.000449
23.339300 0.000448
23.349200 0.000448
23.359100 0.000447
23.369000 0.000447
23.378900 0.000446
23.388800 0.000446
23.398700 0.000445
23.408600 0.000445
23.418500 0.000444
23.428400 0.000444
23.438300 0.000444
23.448200 0.000443
23.458100 0.000443
23.468000 0.000442
23.477900 0.000442
23.487800 0.000441
23.497700 0.000441
23.507600 0.000440
23.517500 0.000440
23.527400 0.000440
23.537300 0.000439
23.547200 0.000439
23.557100 0.000438
23.567000 0.000438
23.576900 0.000437
23.586800 0.000437
23.596700 0.000436
23.606600 0.000436
23.616500 0.000436
23.626400 0.000435
23.636300 0.000435
23.646200 0.000434
23.656100 0.000434
23.666000 0.000433
23.675900 0.000433
23.685800 0.000433
23.695700 0.000432
23.705600 0.000432
23.715500 0.000431
23.725400 0.000431
23.735300 0.000430
23.745200 0.000430
23.755100 0.000430
23.765000 0.000429
23.774900 0.000429
23.784800 0.000428
23.794700 0.000428
23.804600 0.000427
23.814500 0.000427
23.824400 0.000427
23.834300 0.000426
23.844200 0.000426
23.854100 0.000425
23.864000 0.000425
23.873900 0.000424
23.883800 0.000424
23.893700 0.000424
23.903600 0.000423
23.913500 0.000423
23.923400 0.000422
23.933300 0.000422
23.943200 0.000422
23.953100 0.000421
23.963000 0.000421
23.972900 0.000420
23.982800 0.000420
23.992700 0.000419
24.002600 0.000419
24.012500 0.000419
24.022400 0.000418
24.032300 0.000418
24.042200 0.000417
24.052100 0.000417
24.062000 0.000417
24.071900 0.000416
24.081800 0.000416
24.091700 0.000415
24.101600 0.000415
24.111500 0.000415
24.121400 0.000414
24.131300 0.000414
24.141200 0.000413
24.151100 0.000413
24.161000 0.000413
24.170900 0.000412
24.180800 0.000412
24.190700 0.000411
24.200600 0.000411
24.210500 0.000411
24.220400 0.000410
24.230300 0.000410
24.240200 0.000409
24.250100 0.000409
24.260000 0.000409
24.269900 0.000408
24.279800 0.000408
24.289700 0.000407
24.299600 0.000407
24.309500 0.000407
24.319400 0.000406
24.329300 0.000406
24.339200 0.000406
24.349100 0.000405
24.359000 0.000405
24.368900 0.000404
24.378800 0.000404
24.388700 0.000404
24.398600 0.000403
24.408500 0.000403
24.418400 0.000402
24.428300 0.000402
24.438200 0.000402
24.448100 0.000401
24.458000 0.000401
24.467900 0.000401
24.477800 0.000400
24.487700 0.000400
24.497600 0.000399
24.507500 0.000399
24.517400 0.000399
24.527300 0.000398
24.537200 0.000398
24.547100 0.000397
24.557000 0.000397
24.566900 0.000397
24.576800 0.000396
24.586700 0.000396
24.596600 0.000396
24.606500 0.000395
24.616400 0.000395
24.626300 0.000394
24.636200 0.000394
24.646100 0.000394
24.656000 0.000393
24.665900 0.000393
24.675800 0.000393
24.685700 0.000392
24.695600 0.000392
24.705500 0.000392
24.715400 0.000391
24.725300 0.000391
24.735200 0.000390
24.745100 0.000390
24.755000 0.000390
24.764900 0.000389
24.774800 0.000389
24.784700 0.000389
24.794600 0.000388
24.804500 0.000388
24.814400 0.000388
24.824300 0.000387
24.834200 0.000387
24.844100 0.000386
24.854000 0.000386
24.863900 0.000386
24.873800 0.000385
24.883700 0.000385
24.893600 0.000385
24.903500 0.000384
24.913400 0.000384
24.923300 0.000384
24.933200 0.000383
24.943100 0.000383
24.953000 0.000383
24.962900 0.000382
24.972800 0.000382
24.982700 0.000381
24.992600 0.000381
25.002500 0.000381
25.012400 0.000380
25.022300 0.000380
25.032200 0.000380
25.042100 0.000379
25.052000 0.000379
25.061900 0.000379
25.071800 0.000378
25.081700 0.000378
25.091600 0.000378
25.101500 0.000377
25.111400 0.000377
25.121300 0.000377
25.131200 0.000376
25.141100 0.000376
25.151000 0.000376
25.160900 0.000375
25.170800 0.000375
25.180700 0.000374
25.190600 0.000374
25.200500 0.000374
25.210400 0.000373
25.220300 0.000373
25.230200 0.000373
25.240100 0.000372
25.250000 0.000372
25.259900 0.000372
25.269800 0.000371
25.279700 0.000371
25.289600 0.000371
25.299500 0.000370
25.309400 0.000370
25.319300 0.000370
25.329200 0.000369
25.339100 0.000369
25.349000 0.000369
25.358900 0.000368
25.368800 0.000368
25.378700 0.000368
25.388600 0.000367
25.398500 0.000367
25.408400 0.000367
25.418300 0.000366
25.428200 0.000366
25.438100 0.000366
25.448000 0.000365
25.457900 0.000365
25.467800 0.000365
25.477700 0.000364
25.487600 0.000364
25.497500 0.000364
25.507400 0.000363
25.517300 0.000363
25.527200 0.000363
25.537100 0.000362
25.547000 0.000362
25.556900 0.000362
25.566800 0.000362
25.576700 0.000361
25.586600 0.000361
25.596500 0.000361
25.606400 0.000360
25.616300 0.000360
25.626200 0.000360
25.636100 0.000359
25.646000 0.000359
25.655900 0.000359
25.665800 0.000358
25.675700 0.000358
25.685600 0.000358
25.695500 0.000357
25.705400 0.000357
25.715300 0.000357
25.725200 0.000356
25.735100 0.000356
25.745000 0.000356
25.754900 0.000355
25.764800 0.000355
25.774700 0.000355
25.784600 0.000354
25.794500 0.000354
25.804400 0.000354
25.814300 0.000354
25.824200 0.000353
25.834100 0.000353
25.844000 0.000353
25.853900 0.000352
25.863800 0.000352
25.873700 0.000352
25.883600 0.000351
25.893500 0.000351
25.903400 0.000351
25.913300 0.000350
25.923200 0.000350
25.933100 0.000350
25.943000 0.000350
25.952900 0.000349
25.962800 0.000349
25.972700 0.000349
25.982600 0.000348
25.992500 0.000348
26.002400 0.000348
26.012300 0.000347
26.022200 0.000347
26.032100 0.000347
26.042000 0.000346
26.051900 0.000346
26.061800 0.000346
26.071700 0.000346
26.081600 0.000345
26.091500 0.000345
26.101400 0.000345
26.111300 0.000344
26.121200 0.000344
26.131100 0.000344
26.141000 0.000343
26.150900 0.000343
26.160800 0.000343
26.170700 0.000343
26.180600 0.000342
26.190500 0.000342
26.200400 0.000342
26.210300 0.000341
26.220200 0.000341
26.230100 0.000341
26.240000 0.000341
26.249900 0.000340
26.259800 0.000340
26.269700 0.000340
26.279600 0.000339
26.289500 0.000339
26.299400 0.000339
26.309300 0.000338
26.319200 0.000338
26.329100 0.000338
26.339000 0.000338
26.348900 0.000337
26.358800 0.000337
26.368700 0.000337
26.378600 0.000336
26.388500 0.000336
26.398400 0.000336
26.408300 0.000336
26.418200 0.000335
26.428100 0.000335
26.438000 0.000335
26.447900 0.000334
26.457800 0.000334
26.467700 0.000334
26.477600 0.000334
26.487500 0.000333
26.497400 0.000333
26.507300 0.000333
26.517200 0.000332
26.527100 0.000332
26.537000 0.000332
26.546900 0.000332
26.556800 0.000331
26.566700 0.000331
26.576600 0.000331
26.586500 0.000330
26.596400 0.000330
26.606300 0.000330
26.616200 0.000330
26.626100 0.000329
26.636000 0.000329
26.645900 0.000329
26.655800 0.000328
26.665700 0.000328
26.675600 0.000328
26.685500 0.000328
26.695400 0.000327
26.705300 0.000327
26.715200 0.000327
26.725100 0.000327
26.735000 0.000326
26.744900 0.000326
26.754800 0.000326
26.764700 0.000325
26.774600 0.000325
26.784500 0.000325
26.794400 0.000325
26.804300 0.000324
26.814200 0.000324
26.824100 0.000324
26.834000 0.000324
26.843900 0.000323
26.853800 0.000323
26.863700 0.000323
26.873600 0.000322
26.883500 0.000322
26.893400 0.000322
26.903300 0.000322
26.913200 0.000321
26.923100 0.000321
26.933000 0.000321
26.942900 0.000321
26.952800 0.000320
26.962700 0.000320
26.972600 0.000320
26.982500 0.000320
26.992400 0.000319
27.002300 0.000319
27.012200 0.000319
27.022100 0.000318
27.032000 0.000318
27.041900 0.000318
27.051800 0.000318
27.061700 0.000317
27.071600 0.000317
27.081500 0.000317
27.091400 0.000317
27.101300 0.000316
27.111200 0.000316
27.121100 0.000316
27.131000 0.000316
27.140900 0.000315
27.150800 0.000315
27.160700 0.000315
27.170600 0.000315
27.180500 0.000314
27.190400 0.000314
27.200300 0.000314
27.210200 0.000313
27.220100 0.000313
27.230000 0.000313
27.239900 0.000313
27.249800 0.000312
27.259700 0.000312
27.269600 0.000312
27.279500 0.000312
27.289400 0.000311
27.299300 0.000311
27.309200 0.000311
27.319100 0.000311
27.329000 0.000310
27.338900 0.000310
27.348800 0.000310
27.358700 0.000310
27.368600 0.000309
27.378500 0.000309
27.388400 0.000309
27.398300 0.000309
27.408200 0.000308
27.418100 0.000308
27.428000 0.000308
27.437900 0.000308
27.447800 0.000307
27.457700 0.000307
27.467600 0.000307
27.477500 0.000307
27.487400 0.000306
27.497300 0.000306
27.507200 0.000306
27.517100 0.000306
27.527000 0.000305
27.536900 0.000305
27.546800 0.000305
27.556700 0.000305
27.566600 0.000304
27.576500 0.000304
27.586400 0.000304
27.596300 0.000304
27.606200 0.000303
27.616100 0.000303
27.626000 0.000303
27.635900 0.000303
27.645800 0.000302
27.655700 0.000302
27.665600 0.000302
27.675500 0.000302
27.685400 0.000301
27.695300 0.000301
27.705200 0.000301
27.715100 0.000301
27.725000 0.000300
27.734900 0.000300
27.744800 0.000300
27.754700 0.000300
27.764600 0.000300
27.774500 0.000299
27.784400 0.000299
27.794300 0.000299
27.804200 0.000299
27.814100 0.000298
27.824000 0.000298
27.833900 0.000298
27.843800 0.000298
27.853700 0.000297
27.863600 0.000297
27.873500 0.000297
27.883400 0.000297
27.893300 0.000296
27.903200 0.000296
27.913100 0.000296
27.923000 0.000296
27.932900 0.000295
27.942800 0.000295
27.952700 0.000295
27.962600 0.000295
27.972500 0.000295
27.982400 0.000294
27.992300 0.000294
28.002200 0.000294
28.012100 0.000294
28.022000 0.000293
28.031900 0.000293
28.041800 0.000293
28.051700 0.000293
28.061600 0.000292
28.071500 0.000292
28.081400 0.000292
28.091300 0.000292
28.101200 0.000291
28.111100 0.000291
28.121000 0.000291
28.130900 0.000291
28.140800 0.000291
28.150700 0.000290
28.160600 0.000290
28.170500 0.000290
28.180400 0.000290
28.190300 0.000289
28.200200 0.000289
28.210100 0.000289
28.220000 0.000289
28.229900 0.000289
28.239800 0.000288
28.249700 0.000288
28.259600 0.000288
28.269500 0.000288
28.279400 0.000287
28.289300 0.000287
28.299200 0.000287
28.309100 0.000287
28.319000 0.000286
28.328900 0.000286
28.338800 0.000286
28.348700 0.000286
28.358600 0.000286
28.368500 0.000285
28.378400 0.000285
28.388300 0.000285
28.398200 0.000285
28.408100 0.000284
28.418000 0.000284
28.427900 0.000284
28.437800 0.000284
28.447700 0.000284
28.457600 0.000283
28.467500 0.000283
28.477400 0.000283
28.487300 0.000283
28.497200 0.000282
28.507100 0.000282
28.517000 0.000282
28.526900 0.000282
28.536800 0.000282
28.546700 0.000281
28.556600 0.000281
28.566500 0.000281
28.576400 0.000281
28.586300 0.000281
28.596200 0.000280
28.606100 0.000280
28.616000 0.000280
28.625900 0.000280
28.635800 0.000279
28.645700 0.000279
28.655600 0.000279
28.665500 0.000279
28.675400 0.000279
28.685300 0.000278
28.695200 0.000278
28.705100 0.000278
28.715000 0.000278
28.724900 0.000278
28.734800 0.000277
28.744700 0.000277
28.754600 0.000277
28.764500 0.000277
28.774400 0.000276
28.784300 0.000276
28.794200 0.000276
28.804100 0.000276
28.814000 0.000276
28.823900 0.000275
28.833800 0.000275
28.843700 0.000275
28.853600 0.000275
28.863500 0.000275
28.873400 0.000274
28.883300 0.000274
28.893200 0.000274
28.903100 0.000274
28.913000 0.000274
28.922900 0.000273
28.932800 0.000273
28.942700 0.000273
28.952600 0.000273
28.962500 0.000272
28.972400 0.000272
28.982300 0.000272
28.992200 0.000272
29.002100 0.000272
29.012000 0.000271
29.021900 0.000271
29.031800 0.000271
29.041700 0.000271
29.051600 0.000271
29.061500 0.000270
29.071400 0.000270
29.081300 0.000270
29.091200 0.000270
29.101100 0.000270
29.111000 0.000269
29.120900 0.000269
29.130800 0.000269
29.140700 0.000269
29.150600 0.000269
29.160500 0.000268
29.170400 0.000268
29.180300 0.000268
29.190200 0.000268
29.200100 0.000268
29.210000 0.000267
29.219900 0.000267
29.229800 0.000267
29.239700 0.000267
29.249600 0.000267
29.259500 0.000266
29.269400 0.000266
29.279300 0.000266
29.289200 0.000266
29.299100 0.000266
29.309000 0.000265
29.318900 0.000265
29.328800 0.000265
29.338700 0.000265
29.348600 0.000265
29.358500 0.000264
29.368400 0.000264
29.378300 0.000264
29.388200 0.000264
29.398100 0.000264
29.408000 0.000263
29.417900 0.000263
29.427800 0.000263
29.437700 0.000263
29.447600 0.000263
29.457500 0.000262
29.467400 0.000262
29.477300 0.000262
29.487200 0.000262
29.497100 0.000262
29.507000 0.000261
29.516900 0.000261
29.526800 0.000261
29.536700 0.000261
29.546600 0.000261
29.556500 0.000260
29.566400 0.000260
29.576300 0.000260
29.586200 0.000260
29.596100 0.000260
29.606000 0.000259
29.615900 0.000259
29.625800 0.000259
29.635700 0.000259
29.645600 0.000259
29.655500 0.000259
29.665400 0.000258
29.675300 0.000258
29.685200 0.000258
29.695100 0.000258
29.705000 0.000258
29.714900 0.000257
29.724800 0.000257
29.734700 0.000257
29.744600 0.000257
29.754500 0.000257
29.764400 0.000256
29.774300 0.000256
29.784200 0.000256
29.794100 0.000256
29.804000 0.000256
29.813900 0.000255
29.823800 0.000255
29.833700 0.000255
29.843600 0.000255
29.853500 0.000255
29.863400 0.000255
29.873300 0.000254
29.883200 0.000254
29.893100 0.000254
29.903000 0.000254
29.912900 0.000254
29.922800 0.000253
29.932700 0.000253
29.942600 0.000253
29.952500 0.000253
29.962400 0.000253
29.972300 0.000253
29.982200 0.000252
29.992100 0.000252
30.002000 0.000252
30.011900 0.000252
30.021800 0.000252
30.031700 0.000251
30.041600 0.000251
30.051500 0.000251
30.061400 0.000251
30.071300 0.000251
30.081200 0.000251
30.091100 0.000250
30.101000 0.000250
30.110900 0.000250
30.120800 0.000250
30.130700 0.000250
30.140600 0.000249
30.150500 0.000249
30.160400 0.000249
30.170300 0.000249
30.180200 0.000249
30.190100 0.000249
30.200000 0.000248
30.209900 0.000248
30.219800 0.000248
30.229700 0.000248
30.239600 0.000248
30.249500 0.000247
30.259400 0.000247
30.269300 0.000247
30.279200 0.000247
30.289100 0.000247
30.299000 0.000247
30.308900 0.000246
30.318800 0.000246
30.328700 0.000246
30.338600 0.000246
30.348500 0.000246
30.358400 0.000245
30.368300 0.000245
30.378200 0.000245
30.388100 0.000245
30.398000 0.000245
30.407900 0.000245
30.417800 0.000244
30.427700 0.000244
30.437600 0.000244
30.447500 0.000244
30.457400 0.000244
30.467300 0.000244
30.477200 0.000243
30.487100 0.000243
30.497000 0.000243
30.506900 0.000243
30.516800 0.000243
30.526700 0.000243
30.536600 0.000242
30.546500 0.000242
30.556400 0.000242
30.566300 0.000242
30.576200 0.000242
30.586100 0.000241
30.596000 0.000241
30.605900 0.000241
30.615800 0.000241
30.625700 0.000241
30.635600 0.000241
30.645500 0.000240
30.655400 0.000240
30.665300 0.000240
30.675200 0.000240
30.685100 0.000240
30.695000 0.000240
30.704900 0.000239
30.714800 0.000239
30.724700 0.000239
30.734600 0.000239
30.744500 0.000239
30.754400 0.000239
30.764300 0.000238
30.774200 0.000238
30.784100 0.000238
30.794000 0.000238
30.803900 0.000238
30.813800 0.000238
30.823700 0.000237
30.833600 0.000237
30.843500 0.000237
30.853400 0.000237
30.863300 0.000237
30.873200 0.000237
30.883100 0.000236
30.893000 0.000236
30.902900 0.000236
30.912800 0.000236
30.922700 0.000236
30.932600 0.000236
30.942500 0.000235
30.952400 0.000235
30.962300 0.000235
30.972200 0.000235
30.982100 0.000235
30.992000 0.000235
31.001900 0.000234
31.011800 0.000234
31.021700 0.000234
31.031600 0.000234
31.041500 0.000234
31.051400 0.000234
31.061300 0.000233
31.071200 0.000233
31.081100 0.000233
31.091000 0.000233
31.100900 0.000233
31.110800 0.000233
31.120700 0.000232
31.130600 0.000232
31.140500 0.000232
31.150400 0.000232
31.160300 0.000232
31.170200 0.000232
31.180100 0.000231
31.190000 0.000231
31.199900 0.000231
31.209800 0.000231
31.219700 0.000231
31.229600 0.000231
31.239500 0.000231
31.249400 0.000230
31.259300 0.000230
31.269200 0.000230
31.279100 0.000230
31.289000 0.000230
31.298900 0.000230
31.308800 0.000229
31.318700 0.000229
31.328600 0.000229
31.338500 0.000229
31.348400 0.000229
31.358300 0.000229
31.368200 0.000228
31.378100 0.000228
31.388000 0.000228
31.397900 0.000228
31.407800 0.000228
31.417700 0.000228
31.427600 0.000228
31.437500 0.000227
31.447400 0.000227
31.457300 0.000227
31.467200 0.000227
31.477100 0.000227
31.487000 0.000227
31.496900 0.000226
31.506800 0.000226
31.516700 0.000226
31.526600 0.000226
31.536500 0.000226
31.546400 0.000226
31.556300 0.000226
31.566200 0.000225
31.576100 0.000225
31.586000 0.000225
31.595900 0.000225
31.605800 0.000225
31.615700 0.000225
31.625600 0.000224
31.635500 0.000224
31.645400 0.000224
31.655300 0.000224
31.665200 0.000224
31.675100 0.000224
31.685000 0.000224
31.694900 0.000223
31.704800 0.000223
31.714700 0.000223
31.724600 0.000223
31.734500 0.000223
31.744400 0.000223
31.754300 0.000222
31.764200 0.000222
31.774100 0.000222
31.784000 0.000222
31.793900 0.000222
31.803800 0.000222
31.813700 0.000222
31.823600 0.000221
31.833500 0.000221
31.843400 0.000221
31.853300 0.000221
31.863200 0.000221
31.873100 0.000221
31.883000 0.000220
31.892900 0.000220
31.902800 0.000220
31.912700 0.000220
31.922600 0.000220
31.932500 0.000220
31.942400 0.000220
31.952300 0.000219
31.962200 0.000219
31.972100 0.000219
31.982000 0.000219
31.991900 0.000219
32.001800 0.000219
32.011700 0.000219
32.021600 0.000218
32.031500 0.000218
32.041400 0.000218
32.051300 0.000218
32.061200 0.000218
32.071100 0.000218
32.081000 0.000218
32.090900 0.000217
32.100800 0.000217
32.110700 0.000217
32.120600 0.000217
32.130500 0.000217
32.140400 0.000217
32.150300 0.000217
32.160200 0.000216
32.170100 0.000216
32.180000 0.000216
32.189900 0.000216
32.199800 0.000216
32.209700 0.000216
32.219600 0.000216
32.229500 0.000215
32.239400 0.000215
32.249300 0.000215
32.259200 0.000215
32.269100 0.000215
32.279000 0.000215
32.288900 0.000214
32.298800 0.000214
32.308700 0.000214
32.318600 0.000214
32.328500 0.000214
32.338400 0.000214
32.348300 0.000214
32.358200 0.000213
32.368100 0.000213
32.378000 0.000213
32.387900 0.000213
32.397800 0.000213
32.407700 0.000213
32.417600 0.000213
32.427500 0.000213
32.437400 0.000212
32.447300 0.000212
32.457200 0.000212
32.467100 0.000212
32.477000 0.000212
32.486900 0.000212
32.496800 0.000212
32.506700 0.000211
32.516600 0.000211
32.526500 0.000211
32.536400 0.000211
32.546300 0.000211
32.556200 0.000211
32.566100 0.000211
32.576000 0.000210
32.585900 0.000210
32.595800 0.000210
32.605700 0.000210
32.615600 0.000210
32.625500 0.000210
32.635400 0.000210
32.645300 0.000209
32.655200 0.000209
32.665100 0.000209
32.675000 0.000209
32.684900 0.000209
32.694800 0.000209
32.704700 0.000209
32.714600 0.000208
32.724500 0.000208
32.734400 0.000208
32.744300 0.000208
32.754200 0.000208
32.764100 0.000208
32.774000 0.000208
32.783900 0.000208
32.793800 0.000207
32.803700 0.000207
32.813600 0.000207
32.823500 0.000207
32.833400 0.000207
32.843300 0.000207
32.853200 0.000207
32.863100 0.000206
32.873000 0.000206
32.882900 0.000206
32.892800 0.000206
32.902700 0.000206
32.912600 0.000206
32.922500 0.000206
32.932400 0.000205
32.942300 0.000205
32.952200 0.000205
32.962100 0.000205
32.972000 0.000205
32.981900 0.000205
32.991800 0.000205
33.001700 0.000205
33.011600 0.000204
33.021500 0.000204
33.031400 0.000204
33.041300 0.000204
33.051200 0.000204
33.061100 0.000204
33.071000 0.000204
33.080900 0.000204
33.090800 0.000203
33.100700 0.000203
33.110600 0.000203
33.120500 0.000203
33.130400 0.000203
33.140300 0.000203
33.150200 0.000203
33.160100 0.000202
33.170000 0.000202
33.179900 0.000202
33.189800 0.000202
33.199700 0.000202
33.209600 0.000202
33.219500 0.000202
33.229400 0.000202
33.239300 0.000201
33.249200 0.000201
33.259100 0.000201
33.269000 0.000201
33.278900 0.000201
33.288800 0.000201
33.298700 0.000201
33.308600 0.000201
33.318500 0.000200
33.328400 0.000200
33.338300 0.000200
33.348200 0.000200
33.358100 0.000200
33.368000 0.000200
33.377900 0.000200
33.387800 0.000199
33.397700 0.000199
33.407600 0.000199
33.417500 0.000199
33.427400 0.000199
33.437300 0.000199
33.447200 0.000199
33.457100 0.000199
33.467000 0.000198
33.476900 0.000198
33.486800 0.000198
33.496700 0.000198
33.506600 0.000198
33.516500 0.000198
33.526400 0.000198
33.536300 0.000198
33.546200 0.000197
33.556100 0.000197
33.566000 0.000197
33.575900 0.000197
33.585800 0.000197
33.595700 0.000197
33.605600 0.000197
33.615500 0.000197
33.625400 0.000196
33.635300 0.000196
33.645200 0.000196
33.655100 0.000196
33.665000 0.000196
33.674900 0.000196
33.684800 0.000196
33.694700 0.000196
33.704600 0.000195
33.714500 0.000195
33.724400 0.000195
33.734300 0.000195
33.744200 0.000195
33.754100 0.000195
33.764000 0.000195
33.773900 0.000195
33.783800 0.000194
33.793700 0.000194
33.803600 0.000194
33.813500 0.000194
33.823400 0.000194
33.833300 0.000194
33.843200 0.000194
33.853100 0.000194
33.863000 0.000193
33.872900 0.000193
33.882800 0.000193
33.892700 0.000193
33.902600 0.000193
33.912500 0.000193
33.922400 0.000193
33.932300 0.000193
33.942200 0.000193
33.952100 0.000192
33.962000 0.000192
33.971900 0.000192
33.981800 0.000192
33.991700 0.000192
34.001600 0.000192
34.011500 0.000192
34.021400 0.000192
34.031300 0.000191
34.041200 0.000191
34.051100 0.000191
34.061000 0.000191
34.070900 0.000191
34.080800 0.000191
34.090700 0.000191
34.100600 0.000191
34.110500 0.000190
34.120400 0.000190
34.130300 0.000190
34.140200 0.000190
34.150100 0.000190
34.160000 0.000190
34.169900 0.000190
34.179800 0.000190
34.189700 0.000190
34.199600 0.000189
34.209500 0.000189
34.219400 0.000189
34.229300 0.000189
34.239200 0.000189
34.249100 0.000189
34.259000 0.000189
34.268900 0.000189
34.278800 0.000188
34.288700 0.000188
34.298600 0.000188
34.308500 0.000188
34.318400 0.000188
34.328300 0.000188
34.338200 0.000188
34.348100 0.000188
34.358000 0.000188
34.367900 0.000187
34.377800 0.000187
34.387700 0.000187
34.397600 0.000187
34.407500 0.000187
34.417400 0.000187
34.427300 0.000187
34.437200 0.000187
34.447100 0.000186
34.457000 0.000186
34.466900 0.000186
34.476800 0.000186
34.486700 0.000186
34.496600 0.000186
34.506500 0.000186
34.516400 0.000186
34.526300 0.000186
34.536200 0.000185
34.546100 0.000185
34.556000 0.000185
34.565900 0.000185
34.575800 0.000185
34.585700 0.000185
34.595600 0.000185
34.605500 0.000185
34.615400 0.000185
34.625300 0.000184
34.635200 0.000184
34.645100 0.000184
34.655000 0.000184
34.664900 0.000184
34.674800 0.000184
34.684700 0.000184
34.694600 0.000184
34.704500 0.000184
34.714400 0.000183
34.724300 0.000183
34.734200 0.000183
34.744100 0.000183
34.754000 0.000183
34.763900 0.000183
34.773800 0.000183
34.783700 0.000183
34.793600 0.000183
34.803500 0.000182
34.813400 0.000182
34.823300 0.000182
34.833200 0.000182
34.843100 0.000182
34.853000 0.000182
34.862900 0.000182
34.872800 0.000182
34.882700 0.000182
34.892600 0.000181
34.902500 0.000181
34.912400 0.000181
34.922300 0.000181
34.932200 0.000181
34.942100 0.000181
34.952000 0.000181
34.961900 0.000181
34.971800 0.000181
34.981700 0.000180
34.991600 0.000180
35.001500 0.000180
35.011400 0.000180
35.021300 0.000180
35.031200 0.000180
35.041100 0.000180
35.051000 0.000180
35.060900 0.000180
35.070800 0.000179
35.080700 0.000179
35.090600 0.000179
35.100500 0.000179
35.110400 0.000179
35.120300 0.000179
35.130200 0.000179
35.140100 0.000179
35.150000 0.000179
35.159900 0.000178
35.169800 0.000178
35.179700 0.000178
35.189600 0.000178
35.199500 0.000178
35.209400 0.000178
35.219300 0.000178
35.229200 0.000178
35.239100 0.000178
35.249000 0.000177
35.258900 0.000177
35.268800 0.000177
35.278700 0.000177
35.288600 0.000177
35.298500 0.000177
35.308400 0.000177
35.318300 0.000177
35.328200 0.000177
35.338100 0.000177
35.348000 0.000176
35.357900 0.000176
35.367800 0.000176
35.377700 0.000176
35.387600 0.000176
35.397500 0.000176
35.407400 0.000176
35.417300 0.000176
35.427200 0.000176
35.437100 0.000175
35.447000 0.000175
35.456900 0.000175
35.466800 0.000175
35.476700 0.000175
35.486600 0.000175
35.496500 0.000175
35.506400 0.000175
35.516300 0.000175
35.526200 0.000175
35.536100 0.000174
35.546000 0.000174
35.555900 0.000174
35.565800 0.000174
35.575700 0.000174
35.585600 0.000174
35.595500 0.000174
35.605400 0.000174
35.615300 0.000174
35.625200 0.000174
35.635100 0.000173
35.645000 0.000173
35.654900 0.000173
35.664800 0.000173
35.674700 0.000173
35.684600 0.000173
35.694500 0.000173
35.704400 0.000173
35.714300 0.000173
35.724200 0.000172
35.734100 0.000172
35.744000 0.000172
35.753900 0.000172
35.763800 0.000172
35.773700 0.000172
35.783600 0.000172
35.793500 0.000172
35.803400 0.000172
35.813300 0.000172
35.823200 0.000171
35.833100 0.000171
35.843000 0.000171
35.852900 0.000171
35.862800 0.000171
35.872700 0.000171
35.882600 0.000171
35.892500 0.000171
35.902400 0.000171
35.912300 0.000171
35.922200 0.000170
35.932100 0.000170
35.942000 0.000170
35.951900 0.000170
35.961800 0.000170
35.971700 0.000170
35.981600 0.000170
35.991500 0.000170
36.001400 0.000170
36.011300 0.000170
36.021200 0.000169
36.031100 0.000169
36.041000 0.000169
36.050900 0.000169
36.060800 0.000169
36.070700 0.000169
36.080600 0.000169
36.090500 0.000169
36.100400 0.000169
36.110300 0.000169
36.120200 0.000168
36.130100 0.000168
36.140000 0.000168
36.149900 0.000168
36.159800 0.000168
36.169700 0.000168
36.179600 0.000168
36.189500 0.000168
36.199400 0.000168
36.209300 0.000168
36.219200 0.000167
36.229100 0.000167
36.239000 0.000167
36.248900 0.000167
36.258800 0.000167
36.268700 0.000167
36.278600 0.000167
36.288500 0.000167
36.298400 0.000167
36.308300 0.000167
36.318200 0.000167
36.328100 0.000166
36.338000 0.000166
36.347900 0.000166
36.357800 0.000166
36.367700 0.000166
36.377600 0.000166
36.387500 0.000166
36.397400 0.000166
36.407300 0.000166
36.417200 0.000166
36.427100 0.000165
36.437000 0.000165
36.446900 0.000165
36.456800 0.000165
36.466700 0.000165
36.476600 0.000165
36.486500 0.000165
36.496400 0.000165
36.506300 0.000165
36.516200 0.000165
36.526100 0.000164
36.536000 0.000164
36.545900 0.000164
36.555800 0.000164
36.565700 0.000164
36.575600 0.000164
36.585500 0.000164
36.595400 0.000164
36.605300 0.000164
36.615200 0.000164
36.625100 0.000164
36.635000 0.000163
36.644900 0.000163
36.654800 0.000163
36.664700 0.000163
36.674600 0.000163
36.684500 0.000163
36.694400 0.000163
36.704300 0.000163
36.714200 0.000163
36.724100 0.000163
36.734000 0.000163
36.743900 0.000162
36.753800 0.000162
36.763700 0.000162
36.773600 0.000162
36.783500 0.000162
36.793400 0.000162
36.803300 0.000162
36.813200 0.000162
36.823100 0.000162
36.833000 0.000162
36.842900 0.000161
36.852800 0.000161
36.862700 0.000161
36.872600 0.000161
36.882500 0.000161
36.892400 0.000161
36.902300 0.000161
36.912200 0.000161
36.922100 0.000161
36.932000 0.000161
36.941900 0.000161
36.951800 0.000160
36.961700 0.000160
36.971600 0.000160
36.981500 0.000160
36.991400 0.000160
37.001300 0.000160
37.011200 0.000160
37.021100 0.000160
37.031000 0.000160
37.040900 0.000160
37.050800 0.000160
37.060700 0.000159
37.070600 0.000159
37.080500 0.000159
37.090400 0.000159
37.100300 0.000159
37.110200 0.000159
37.120100 0.000159
37.130000 0.000159
37.139900 0.000159
37.149800 0.000159
37.159700 0.000159
37.169600 0.000158
37.179500 0.000158
37.189400 0.000158
37.199300 0.000158
37.209200 0.000158
37.219100 0.000158
37.229000 0.000158
37.238900 0.000158
37.248800 0.000158
37.258700 0.000158
37.268600 0.000158
37.278500 0.000158
37.288400 0.000157
37.298300 0.000157
37.308200 0.000157
37.318100 0.000157
37.328000 0.000157
37.337900 0.000157
37.347800 0.000157
37.357700 0.000157
37.367600 0.000157
37.377500 0.000157
37.387400 0.000157
37.397300 0.000156
37.407200 0.000156
37.417100 0.000156
37.427000 0.000156
37.436900 0.000156
37.446800 0.000156
37.456700 0.000156
37.466600 0.000156
37.476500 0.000156
37.486400 0.000156
37.496300 0.000156
37.506200 0.000155
37.516100 0.000155
37.526000 0.000155
37.535900 0.000155
37.545800 0.000155
37.555700 0.000155
37.565600 0.000155
37.575500 0.000155
37.585400 0.000155
37.595300 0.000155
37.605200 0.000155
37.615100 0.000155
37.625000 0.000154
37.634900 0.000154
37.644800 0.000154
37.654700 0.000154
37.664600 0.000154
37.674500 0.000154
37.684400 0.000154
37.694300 0.000154
37.704200 0.000154
37.714100 0.000154
37.724000 0.000154
37.733900 0.000153
37.743800 0.000153
37.753700 0.000153
37.763600 0.000153
37.773500 0.000153
37.783400 0.000153
37.793300 0.000153
37.803200 0.000153
37.813100 0.000153
37.823000 0.000153
37.832900 0.000153
37.842800 0.000153
37.852700 0.000152
37.862600 0.000152
37.872500 0.000152
37.882400 0.000152
37.892300 0.000152
37.902200 0.000152
37.912100 0.000152
37.922000 0.000152
37.931900 0.000152
37.941800 0.000152
37.951700 0.000152
37.961600 0.000152
37.971500 0.000151
37.981400 0.000151
37.991300 0.000151
38.001200 0.000151
38.011100 0.000151
38.021000 0.000151
38.030900 0.000151
38.040800 0.000151
38.050700 0.000151
38.060600 0.000151
38.070500 0.000151
38.080400 0.000151
38.090300 0.000150
38.100200 0.000150
38.110100 0.000150
38.120000 0.000150
38.129900 0.000150
38.139800 0.000150
38.149700 0.000150
38.159600 0.000150
38.169500 0.000150
38.179400 0.000150
38.189300 0.000150
38.199200 0.000150
38.209100 0.000149
38.219000 0.000149
38.228900 0.000149
38.238800 0.000149
38.248700 0.000149
38.258600 0.000149
38.268500 0.000149
38.278400 0.000149
38.288300 0.000149
38.298200 0.000149
38.308100 0.000149
38.318000 0.000149
38.327900 0.000148
38.337800 0.000148
38.347700 0.000148
38.357600 0.000148
38.367500 0.000148
38.377400 0.000148
38.387300 0.000148
38.397200 0.000148
38.407100 0.000148
38.417000 0.000148
38.426900 0.000148
38.436800 0.000148
38.446700 0.000148
38.456600 0.000147
38.466500 0.000147
38.476400 0.000147
38.486300 0.000147
38.496200 0.000147
38.506100 0.000147
38.516000 0.000147
38.525900 0.000147
38.535800 0.000147
38.545700 0.000147
38.555600 0.000147
38.565500 0.000147
38.575400 0.000146
38.585300 0.000146
38.595200 0.000146
38.605100 0.000146
38.615000 0.000146
38.624900 0.000146
38.634800 0.000146
38.644700 0.000146
38.654600 0.000146
38.664500 0.000146
38.674400 0.000146
38.684300 0.000146
38.694200 0.000146
38.704100 0.000145
38.714000 0.000145
38.723900 0.000145
38.733800 0.000145
38.743700 0.000145
38.753600 0.000145
38.763500 0.000145
38.773400 0.000145
38.783300 0.000145
38.793200 0.000145
38.803100 0.000145
38.813000 0.000145
38.822900 0.000145
38.832800 0.000144
38.842700 0.000144
38.852600 0.000144
38.862500 0.000144
38.872400 0.000144
38.882300 0.000144
38.892200 0.000144
38.902100 0.000144
38.912000 0.000144
38.921900 0.000144
38.931800 0.000144
38.941700 0.000144
38.951600 0.000143
38.961500 0.000143
38.971400 0.000143
38.981300 0.000143
38.991200 0.000143
39.001100 0.000143
39.011000 0.000143
39.020900 0.000143
39.030800 0.000143
39.040700 0.000143
39.050600 0.000143
39.060500 0.000143
39.070400 0.000143
39.080300 0.000143
39.090200 0.000142
39.100100 0.000142
39.110000 0.000142
39.119900 0.000142
39.129800 0.000142
39.139700 0.000142
39.149600 0.000142
39.159500 0.000142
39.169400 0.000142
39.179300 0.000142
39.189200 0.000142
39.199100 0.000142
39.209000 0.000142
39.218900 0.000141
39.228800 0.000141
39.238700 0.000141
39.248600 0.000141
39.258500 0.000141
39.268400 0.000141
39.278300 0.000141
39.288200 0.000141
39.298100 0.000141
39.308000 0.000141
39.317900 0.000141
39.327800 0.000141
39.337700 0.000141
39.347600 0.000140
39.357500 0.000140
39.367400 0.000140
39.377300 0.000140
39.387200 0.000140
39.397100 0.000140
39.407000 0.000140
39.416900 0.000140
39.426800 0.000140
39.436700 0.000140
39.446600 0.000140
39.456500 0.000140
39.466400 0.000140
39.476300 0.000139
39.486200 0.000139
39.496100 0.000139
39.506000 0.000139
39.515900 0.000139
39.525800 0.000139
39.535700 0.000139
39.545600 0.000139
39.555500 0.000139
39.565400 0.000139
39.575300 0.000139
39.585200 0.000139
39.595100 0.000139
39.605000 0.000139
39.614900 0.000138
39.624800 0.000138
39.634700 0.000138
39.644600 0.000138
39.654500 0.000138
39.664400 0.000138
39.674300 0.000138
39.684200 0.000138
39.694100 0.000138
39.704000 0.000138
39.713900 0.000138
39.723800 0.000138
39.733700 0.000138
39.743600 0.000138
39.753500 0.000137
39.763400 0.000137
39.773300 0.000137
39.783200 0.000137
39.793100 0.000137
39.803000 0.000137
39.812900 0.000137
39.822800 0.000137
39.832700 0.000137
39.842600 0.000137
39.852500 0.000137
39.862400 0.000137
39.872300 0.000137
39.882200 0.000137
39.892100 0.000136
39.902000 0.000136
39.911900 0.000136
39.921800 0.000136
39.931700 0.000136
39.941600 0.000136
39.951500 0.000136
39.961400 0.000136
39.971300 0.000136
39.981200 0.000136
39.991100 0.000136
40.001000 0.000136
40.010900 0.000136
40.020800 0.000136
40.030700 0.000135
40.040600 0.000135
40.050500 0.000135
40.060400 0.000135
40.070300 0.000135
40.080200 0.000135
40.090100 0.000135
40.100000 0.000135
40.109900 0.000135
40.119800 0.000135
40.129700 0.000135
40.139600 0.000135
40.149500 0.000135
40.159400 0.000135
40.169300 0.000134
40.179200 0.000134
40.189100 0.000134
40.199000 0.000134
40.208900 0.000134
40.218800 0.000134
40.228700 0.000134
40.238600 0.000134
40.248500 0.000134
40.258400 0.000134
40.268300 0.000134
40.278200 0.000134
40.288100 0.000134
40.298000 0.000134
40.307900 0.000133
40.317800 0.000133
40.327700 0.000133
40.337600 0.000133
40.347500 0.000133
40.357400 0.000133
40.367300 0.000133
40.377200 0.000133
40.387100 0.000133
40.397000 0.000133
40.406900 0.000133
40.416800 0.000133
40.426700 0.000133
40.436600 0.000133
40.446500 0.000133
40.456400 0.000132
40.466300 0.000132
40.476200 0.000132
40.486100 0.000132
40.496000 0.000132
40.505900 0.000132
40.515800 0.000132
40.525700 0.000132
40.535600 0.000132
40.545500 0.000132
40.555400 0.000132
40.565300 0.000132
40.575200 0.000132
40.585100 0.000132
40.595000 0.000132
40.604900 0.000131
40.614800 0.000131
40.624700 0.000131
40.634600 0.000131
40.644500 0.000131
40.654400 0.000131
40.664300 0.000131
40.674200 0.000131
40.684100 0.000131
40.694000 0.000131
40.703900 0.000131
40.713800 0.000131
40.723700 0.000131
40.733600 0.000131
40.743500 0.000131
40.753400 0.000130
40.763300 0.000130
40.773200 0.000130
40.783100 0.000130
40.793000 0.000130
40.802900 0.000130
40.812800 0.000130
40.822700 0.000130
40.832600 0.000130
40.842500 0.000130
40.852400 0.000130
40.862300 0.000130
40.872200 0.000130
40.882100 0.000130
40.892000 0.000130
40.901900 0.000129
40.911800 0.000129
40.921700 0.000129
40.931600 0.000129
40.941500 0.000129
40.951400 0.000129
40.961300 0.000129
40.971200 0.000129
40.981100 0.000129
40.991000 0.000129
41.000900 0.000129
41.010800 0.000129
41.020700 0.000129
41.030600 0.000129
41.040500 0.000129
41.050400 0.000128
41.060300 0.000128
41.070200 0.000128
41.080100 0.000128
41.090000 0.000128
41.099900 0.000128
41.109800 0.000128
41.119700 0.000128
41.129600 0.000128
41.139500 0.000128
41.149400 0.000128
41.159300 0.000128
41.169200 0.000128
41.179100 0.000128
41.189000 0.000128
41.198900 0.000127
41.208800 0.000127
41.218700 0.000127
41.228600 0.000127
41.238500 0.000127
41.248400 0.000127
41.258300 0.000127
41.268200 0.000127
41.278100 0.000127
41.288000 0.000127
41.297900 0.000127
41.307800 0.000127
41.317700 0.000127
41.327600 0.000127
41.337500 0.000127
41.347400 0.000127
41.357300 0.000126
41.367200 0.000126
41.377100 0.000126
41.387000 0.000126
41.396900 0.000126
41.406800 0.000126
41.416700 0.000126
41.426600 0.000126
41.436500 0.000126
41.446400 0.000126
41.456300 0.000126
41.466200 0.000126
41.476100 0.000126
41.486000 0.000126
41.495900 0.000126
41.505800 0.000126
41.515700 0.000125
41.525600 0.000125
41.535500 0.000125
41.545400 0.000125
41.555300 0.000125
41.565200 0.000125
41.575100 0.000125
41.585000 0.000125
41.594900 0.000125
41.604800 0.000125
41.614700 0.000125
41.624600 0.000125
41.634500 0.000125
41.644400 0.000125
41.654300 0.000125
41.664200 0.000125
41.674100 0.000124
41.684000 0.000124
41.693900 0.000124
41.703800 0.000124
41.713700 0.000124
41.723600 0.000124
41.733500 0.000124
41.743400 0.000124
41.753300 0.000124
41.763200 0.000124
41.773100 0.000124
41.783000 0.000124
41.792900 0.000124
41.802800 0.000124
41.812700 0.000124
41.822600 0.000124
41.832500 0.000123
41.842400 0.000123
41.852300 0.000123
41.862200 0.000123
41.872100 0.000123
41.882000 0.000123
41.891900 0.000123
41.901800 0.000123
41.911700 0.000123
41.921600 0.000123
41.931500 0.000123
41.941400 0.000123
41.951300 0.000123
41.961200 0.000123
41.971100 0.000123
41.981000 0.000123
41.990900 0.000123
42.000800 0.000122
42.010700 0.000122
42.020600 0.000122
42.030500 0.000122
42.040400 0.000122
42.050300 0.000122
42.060200 0.000122
42.070100 0.000122
42.080000 0.000122
42.089900 0.000122
42.099800 0.000122
42.109700 0.000122
42.119600 0.000122
42.129500 0.000122
42.139400 0.000122
42.149300 0.000122
42.159200 0.000121
42.169100 0.000121
42.179000 0.000121
42.188900 0.000121
42.198800 0.000121
42.208700 0.000121
42.218600 0.000121
42.228500 0.000121
42.238400 0.000121
42.248300 0.000121
42.258200 0.000121
42.268100 0.000121
42.278000 0.000121
42.287900 0.000121
42.297800 0.000121
42.307700 0.000121
42.317600 0.000121
42.327500 0.000120
42.337400 0.000120
42.347300 0.000120
42.357200 0.000120
42.367100 0.000120
42.377000 0.000120
42.386900 0.000120
42.396800 0.000120
42.406700 0.000120
42.416600 0.000120
42.426500 0.000120
42.436400 0.000120
42.446300 0.000120
42.456200 0.000120
42.466100 0.000120
42.476000 0.000120
42.485900 0.000120
42.495800 0.000119
42.505700 0.000119
42.515600 0.000119
42.525500 0.000119
42.535400 0.000119
42.545300 0.000119
42.555200 0.000119
42.565100 0.000119
42.575000 0.000119
42.584900 0.000119
42.594800 0.000119
42.604700 0.000119
42.614600 0.000119
42.624500 0.000119
42.634400 0.000119
42.644300 0.000119
42.654200 0.000119
42.664100 0.000118
42.674000 0.000118
42.683900 0.000118
42.693800 0.000118
42.703700 0.000118
42.713600 0.000118
42.723500 0.000118
42.733400 0.000118
42.743300 0.000118
42.753200 0.000118
42.763100 0.000118
42.773000 0.000118
42.782900 0.000118
42.792800 0.000118
42.802700 0.000118
42.812600 0.000118
42.822500 0.000118
42.832400 0.000118
42.842300 0.000117
42.852200 0.000117
42.862100 0.000117
42.872000 0.000117
42.881900 0.000117
42.891800 0.000117
42.901700 0.000117
42.911600 0.000117
42.921500 0.000117
42.931400 0.000117
42.941300 0.000117
42.951200 0.000117
42.961100 0.000117
42.971000 0.000117
42.980900 0.000117
42.990800 0.000117
43.000700 0.000117
43.010600 0.000116
43.020500 0.000116
43.030400 0.000116
43.040300 0.000116
43.050200 0.000116
43.060100 0.000116
43.070000 0.000116
43.079900 0.000116
43.089800 0.000116
43.099700 0.000116
43.109600 0.000116
43.119500 0.000116
43.129400 0.000116
43.139300 0.000116
43.149200 0.000116
43.159100 0.000116
43.169000 0.000116
43.178900 0.000116
43.188800 0.000115
43.198700 0.000115
43.208600 0.000115
43.218500 0.000115
43.228400 0.000115
43.238300 0.000115
43.248200 0.000115
43.258100 0.000115
43.268000 0.000115
43.277900 0.000115
43.287800 0.000115
43.297700 0.000115
43.307600 0.000115
43.317500 0.000115
43.327400 0.000115
43.337300 0.000115
43.347200 0.000115
43.357100 0.000115
43.367000 0.000115
43.376900 0.000114
43.386800 0.000114
43.396700 0.000114
43.406600 0.000114
43.416500 0.000114
43.426400 0.000114
43.436300 0.000114
43.446200 0.000114
43.456100 0.000114
43.466000 0.000114
43.475900 0.000114
43.485800 0.000114
43.495700 0.000114
43.505600 0.000114
43.515500 0.000114
43.525400 0.000114
43.535300 0.000114
43.545200 0.000114
43.555100 0.000113
43.565000 0.000113
43.574900 0.000113
43.584800 0.000113
43.594700 0.000113
43.604600 0.000113
43.614500 0.000113
43.624400 0.000113
43.634300 0.000113
43.644200 0.000113
43.654100 0.000113
43.664000 0.000113
43.673900 0.000113
43.683800 0.000113
43.693700 0.000113
43.703600 0.000113
43.713500 0.000113
43.723400 0.000113
43.733300 0.000113
43.743200 0.000112
43.753100 0.000112
43.763000 0.000112
43.772900 0.000112
43.782800 0.000112
43.792700 0.000112
43.802600 0.000112
43.812500 0.000112
43.822400 0.000112
43.832300 0.000112
43.842200 0.000112
43.852100 0.000112
43.862000 0.000112
43.871900 0.000112
43.881800 0.000112
43.891700 0.000112
43.901600 0.000112
43.911500 0.000112
43.921400 0.000112
43.931300 0.000111
43.941200 0.000111
43.951100 0.000111
43.961000 0.000111
43.970900 0.000111
43.980800 0.000111
43.990700 0.000111
44.000600 0.000111
44.010500 0.000111
44.020400 0.000111
44.030300 0.000111
44.040200 0.000111
44.050100 0.000111
44.060000 0.000111
44.069900 0.000111
44.079800 0.000111
44.089700 0.000111
44.099600 0.000111
44.109500 0.000111
44.119400 0.000110
44.129300 0.000110
44.139200 0.000110
44.149100 0.000110
44.159000 0.000110
44.168900 0.000110
44.178800 0.000110
44.188700 0.000110
44.198600 0.000110
44.208500 0.000110
44.218400 0.000110
44.228300 0.000110
44.238200 0.000110
44.248100 0.000110
44.258000 0.000110
44.267900 0.000110
44.277800 0.000110
44.287700 0.000110
44.297600 0.000110
44.307500 0.000109
44.317400 0.000109
44.327300 0.000109
44.337200 0.000109
44.347100 0.000109
44.357000 0.000109
44.366900 0.000109
44.376800 0.000109
44.386700 0.000109
44.396600 0.000109
44.406500 0.000109
44.416400 0.000109
44.426300 0.000109
44.436200 0.000109
44.446100 0.000109
44.456000 0.000109
44.465900 0.000109
44.475800 0.000109
44.485700 0.000109
44.495600 0.000109
44.505500 0.000108
44.515400 0.000108
44.525300 0.000108
44.535200 0.000108
44.545100 0.000108
44.555000 0.000108
44.564900 0.000108
44.574800 0.000108
44.584700 0.000108
44.594600 0.000108
44.604500 0.000108
44.614400 0.000108
44.624300 0.000108
44.634200 0.000108
44.644100 0.000108
44.654000 0.000108
44.663900 0.000108
44.673800 0.000108
44.683700 0.000108
44.693600 0.000108
44.703500 0.000107
44.713400 0.000107
44.723300 0.000107
44.733200 0.000107
44.743100 0.000107
44.753000 0.000107
44.762900 0.000107
44.772800 0.000107
44.782700 0.000107
44.792600 0.000107
44.802500 0.000107
44.812400 0.000107
44.822300 0.000107
44.832200 0.000107
44.842100 0.000107
44.852000 0.000107
44.861900 0.000107
44.871800 0.000107
44.881700 0.000107
44.891600 0.000107
44.901500 0.000106
44.911400 0.000106
44.921300 0.000106
44.931200 0.000106
44.941100 0.000106
44.951000 0.000106
44.960900 0.000106
44.970800 0.000106
44.980700 0.000106
44.990600 0.000106
45.000500 0.000106
45.010400 0.000106
45.020300 0.000106
45.030200 0.000106
45.040100 0.000106
45.050000 0.000106
45.059900 0.000106
45.069800 0.000106
45.079700 0.000106
45.089600 0.000106
45.099500 0.000106
45.109400 0.000105
45.119300 0.000105
45.129200 0.000105
45.139100 0.000105
45.149000 0.000105
45.158900 0.000105
45.168800 0.000105
45.178700 0.000105
45.188600 0.000105
45.198500 0.000105
45.208400 0.000105
45.218300 0.000105
45.228200 0.000105
45.238100 0.000105
45.248000 0.000105
45.257900 0.000105
45.267800 0.000105
45.277700 0.000105
45.287600 0.000105
45.297500 0.000105
45.307400 0.000105
45.317300 0.000104
45.327200 0.000104
45.337100 0.000104
45.347000 0.000104
45.356900 0.000104
45.366800 0.000104
45.376700 0.000104
45.386600 0.000104
45.396500 0.000104
45.406400 0.000104
45.416300 0.000104
45.426200 0.000104
45.436100 0.000104
45.446000 0.000104
45.455900 0.000104
45.465800 0.000104
45.475700 0.000104
45.485600 0.000104
45.495500 0.000104
45.505400 0.000104
45.515300 0.000104
45.525200 0.000103
45.535100 0.000103
45.545000 0.000103
45.554900 0.000103
45.564800 0.000103
45.574700 0.000103
45.584600 0.000103
45.594500 0.000103
45.604400 0.000103
45.614300 0.000103
45.624200 0.000103
45.634100 0.000103
45.644000 0.000103
45.653900 0.000103
45.663800 0.000103
45.673700 0.000103
45.683600 0.000103
45.693500 0.000103
45.703400 0.000103
45.713300 0.000103
45.723200 0.000103
45.733100 0.000102
45.743000 0.000102
45.752900 0.000102
45.762800 0.000102
45.772700 0.000102
45.782600 0.000102
45.792500 0.000102
45.802400 0.000102
45.812300 0.000102
45.822200 0.000102
45.832100 0.000102
45.842000 0.000102
45.851900 0.000102
45.861800 0.000102
45.871700 0.000102
45.881600 0.000102
45.891500 0.000102
45.901400 0.000102
45.911300 0.000102
45.921200 0.000102
45.931100 0.000102
45.941000 0.000102
45.950900 0.000101
45.960800 0.000101
45.970700 0.000101
45.980600 0.000101
45.990500 0.000101
46.000400 0.000101
46.010300 0.000101
46.020200 0.000101
46.030100 0.000101
46.040000 0.000101
46.049900 0.000101
46.059800 0.000101
46.069700 0.000101
46.079600 0.000101
46.089500 0.000101
46.099400 0.000101
46.109300 0.000101
46.119200 0.000101
46.129100 0.000101
46.139000 0.000101
46.148900 0.000101
46.158800 0.000101
46.168700 0.000100
46.178600 0.000100
46.188500 0.000100
46.198400 0.000100
46.208300 0.000100
46.218200 0.000100
46.228100 0.000100
46.238000 0.000100
46.247900 0.000100
46.257800 0.000100
46.267700 0.000100
46.277600 0.000100
46.287500 0.000100
46.297400 0.000100
46.307300 0.000100
46.317200 0.000100
46.327100 0.000100
46.337000 0.000100
46.346900 0.000100
46.356800 0.000100
46.366700 0.000100
46.376600 0.000100
46.386500 0.000100
46.396400 0.000099
46.406300 0.000099
46.416200 0.000099
46.426100 0.000099
46.436000 0.000099
46.445900 0.000099
46.455800 0.000099
46.465700 0.000099
46.475600 0.000099
46.485500 0.000099
46.495400 0.000099
46.505300 0.000099
46.515200 0.000099
46.525100 0.000099
46.535000 0.000099
46.544900 0.000099
46.554800 0.000099
46.564700 0.000099
46.574600 0.000099
46.584500 0.000099
46.594400 0.000099
46.604300 0.000099
46.614200 0.000099
46.624100 0.000098
46.634000 0.000098
46.643900 0.000098
46.653800 0.000098
46.663700 0.000098
46.673600 0.000098
46.683500 0.000098
46.693400 0.000098
46.703300 0.000098
46.713200 0.000098
46.723100 0.000098
46.733000 0.000098
46.742900 0.000098
46.752800 0.000098
46.762700 0.000098
46.772600 0.000098
46.782500 0.000098
46.792400 0.000098
46.802300 0.000098
46.812200 0.000098
46.822100 0.000098
46.832000 0.000098
46.841900 0.000098
46.851800 0.000097
46.861700 0.000097
46.871600 0.000097
46.881500 0.000097
46.891400 0.000097
46.901300 0.000097
46.911200 0.000097
46.921100 0.000097
46.931000 0.000097
46.940900 0.000097
46.950800 0.000097
46.960700 0.000097
46.970600 0.000097
46.980500 0.000097
46.990400 0.000097
47.000300 0.000097
47.010200 0.000097
47.020100 0.000097
47.030000 0.000097
47.039900 0.000097
47.049800 0.000097
47.059700 0.000097
47.069600 0.000097
47.079500 0.000096
47.089400 0.000096
47.099300 0.000096
47.109200 0.000096
47.119100 0.000096
47.129000 0.000096
47.138900 0.000096
47.148800 0.000096
47.158700 0.000096
47.168600 0.000096
47.178500 0.000096
47.188400 0.000096
47.198300 0.000096
47.208200 0.000096
47.218100 0.000096
47.228000 0.000096
47.237900 0.000096
47.247800 0.000096
47.257700 0.000096
47.267600 0.000096
47.277500 0.000096
47.287400 0.000096
47.297300 0.000096
47.307200 0.000096
47.317100 0.000095
47.327000 0.000095
47.336900 0.000095
47.346800 0.000095
47.356700 0.000095
47.366600 0.000095
47.376500 0.000095
47.386400 0.000095
47.396300 0.000095
47.406200 0.000095
47.416100 0.000095
47.426000 0.000095
47.435900 0.000095
47.445800 0.000095
47.455700 0.000095
47.465600 0.000095
47.475500 0.000095
47.485400 0.000095
47.495300 0.000095
47.505200 0.000095
47.515100 0.000095
47.525000 0.000095
47.534900 0.000095
47.544800 0.000095
47.554700 0.000095
47.564600 0.000094
47.574500 0.000094
47.584400 0.000094
47.594300 0.000094
47.604200 0.000094
47.614100 0.000094
47.624000 0.000094
47.633900 0.000094
47.643800 0.000094
47.653700 0.000094
47.663600 0.000094
47.673500 0.000094
47.683400 0.000094
47.693300 0.000094
47.703200 0.000094
47.713100 0.000094
47.723000 0.000094
47.732900 0.000094
47.742800 0.000094
47.752700 0.000094
47.762600 0.000094
47.772500 0.000094
47.782400 0.000094
47.792300 0.000094
47.802200 0.000093
47.812100 0.000093
47.822000 0.000093
47.831900 0.000093
47.841800 0.000093
47.851700 0.000093
47.861600 0.000093
47.871500 0.000093
47.881400 0.000093
47.891300 0.000093
47.901200 0.000093
47.911100 0.000093
47.921000 0.000093
47.930900 0.000093
47.940800 0.000093
47.950700 0.000093
47.960600 0.000093
47.970500 0.000093
47.980400 0.000093
47.990300 0.000093
48.000200 0.000093
48.010100 0.000093
48.020000 0.000093
48.029900 0.000093
48.039800 0.000093
48.049700 0.000092
48.059600 0.000092
48.069500 0.000092
48.079400 0.000092
48.089300 0.000092
48.099200 0.000092
48.109100 0.000092
48.119000 0.000092
48.128900 0.000092
48.138800 0.000092
48.148700 0.000092
48.158600 0.000092
48.168500 0.000092
48.178400 0.000092
48.188300 0.000092
48.198200 0.000092
48.208100 0.000092
48.218000 0.000092
48.227900 0.000092
48.237800 0.000092
48.247700 0.000092
48.257600 0.000092
48.267500 0.000092
48.277400 0.000092
48.287300 0.000092
48.297200 0.000092
48.307100 0.000091
48.317000 0.000091
48.326900 0.000091
48.336800 0.000091
48.346700 0.000091
48.356600 0.000091
48.366500 0.000091
48.376400 0.000091
48.386300 0.000091
48.396200 0.000091
48.406100 0.000091
48.416000 0.000091
48.425900 0.000091
48.435800 0.000091
48.445700 0.000091
48.455600 0.000091
48.465500 0.000091
48.475400 0.000091
48.485300 0.000091
48.495200 0.000091
48.505100 0.000091
48.515000 0.000091
48.524900 0.000091
48.534800 0.000091
48.544700 0.000091
48.554600 0.000091
48.564500 0.000090
48.574400 0.000090
48.584300 0.000090
48.594200 0.000090
48.604100 0.000090
48.614000 0.000090
48.623900 0.000090
48.633800 0.000090
48.643700 0.000090
48.653600 0.000090
48.663500 0.000090
48.673400 0.000090
48.683300 0.000090
48.693200 0.000090
48.703100 0.000090
48.713000 0.000090
48.722900 0.000090
48.732800 0.000090
48.742700 0.000090
48.752600 0.000090
48.762500 0.000090
48.772400 0.000090
48.782300 0.000090
48.792200 0.000090
48.802100 0.000090
48.812000 0.000090
48.821900 0.000089
48.831800 0.000089
48.841700 0.000089
48.851600 0.000089
48.861500 0.000089
48.871400 0.000089
48.881300 0.000089
48.891200 0.000089
48.901100 0.000089
48.911000 0.000089
48.920900 0.000089
48.930800 0.000089
48.940700 0.000089
48.950600 0.000089
48.960500 0.000089
48.970400 0.000089
48.980300 0.000089
48.990200 0.000089
49.000100 0.000089
49.010000 0.000089
49.019900 0.000089
49.029800 0.000089
49.039700 0.000089
49.049600 0.000089
49.059500 0.000089
49.069400 0.000089
49.079300 0.000089
49.089200 0.000088
49.099100 0.000088
49.109000 0.000088
49.118900 0.000088
49.128800 0.000088
49.138700 0.000088
49.148600 0.000088
49.158500 0.000088
49.168400 0.000088
49.178300 0.000088
49.188200 0.000088
49.198100 0.000088
49.208000 0.000088
49.217900 0.000088
49.227800 0.000088
49.237700 0.000088
49.247600 0.000088
49.257500 0.000088
49.267400 0.000088
49.277300 0.000088
49.287200 0.000088
49.297100 0.000088
49.307000 0.000088
49.316900 0.000088
49.326800 0.000088
49.336700 0.000088
49.346600 0.000088
49.356500 0.000087
49.366400 0.000087
49.376300 0.000087
49.386200 0.000087
49.396100 0.000087
49.406000 0.000087
49.415900 0.000087
49.425800 0.000087
49.435700 0.000087
49.445600 0.000087
49.455500 0.000087
49.465400 0.000087
49.475300 0.000087
49.485200 0.000087
49.495100 0.000087
49.505000 0.000087
49.514900 0.000087
49.524800 0.000087
49.534700 0.000087
49.544600 0.000087
49.554500 0.000087
49.564400 0.000087
49.574300 0.000087
49.584200 0.000087
49.594100 0.000087
49.604000 0.000087
49.613900 0.000087
49.623800 0.000087
49.633700 0.000086
49.643600 0.000086
49.653500 0.000086
49.663400 0.000086
49.673300 0.000086
49.683200 0.000086
49.693100 0.000086
49.703000 0.000086
49.712900 0.000086
49.722800 0.000086
49.732700 0.000086
49.742600 0.000086
49.752500 0.000086
49.762400 0.000086
49.772300 0.000086
49.782200 0.000086
49.792100 0.000086
49.802000 0.000086
49.811900 0.000086
49.821800 0.000086
49.831700 0.000086
49.841600 0.000086
49.851500 0.000086
49.861400 0.000086
49.871300 0.000086
49.881200 0.000086
49.891100 0.000086
49.901000 0.000086
49.910900 0.000086
49.920800 0.000085
49.930700 0.000085
49.940600 0.000085
49.950500 0.000085
49.960400 0.000085
49.970300 0.000085
49.980200 0.000085
49.990100 0.000085
50.000000 0.000085
