# Random transverse-field Ising model
# L=22, J=1=gamma, W_J=0.2, W=2.5
# High-T dynamical energy conductivity sigma^E(omega); via MCLM
# omega/J sigma^E(omega)

0.000000 0.223631
0.000500 0.223478
0.001000 0.223030
0.001500 0.222321
0.002000 0.221405
0.002500 0.220352
0.003000 0.219242
0.003500 0.218161
0.004000 0.217195
0.004500 0.216424
0.005000 0.215918
0.005500 0.215733
0.006000 0.215911
0.006500 0.216475
0.007000 0.217430
0.007500 0.218762
0.008000 0.220437
0.008500 0.222405
0.009000 0.224597
0.009500 0.226930
0.010000 0.229311
0.010500 0.231641
0.011000 0.233821
0.011500 0.235759
0.012000 0.237379
0.012500 0.238622
0.013000 0.239454
0.013500 0.239872
0.014000 0.239898
0.014500 0.239581
0.015000 0.238994
0.015500 0.238227
0.016000 0.237381
0.016500 0.236560
0.017000 0.235865
0.017500 0.235388
0.018000 0.235206
0.018500 0.235378
0.019000 0.235943
0.019500 0.236918
0.020000 0.238294
0.020500 0.240043
0.021000 0.242111
0.021500 0.244426
0.022000 0.246898
0.022500 0.249422
0.023000 0.251887
0.023500 0.254181
0.024000 0.256200
0.024500 0.257853
0.025000 0.259075
0.025500 0.259826
0.026000 0.260098
0.026500 0.259916
0.027000 0.259332
0.027500 0.258429
0.028000 0.257306
0.028500 0.256075
0.029000 0.254852
0.029500 0.253750
0.030000 0.252870
0.030500 0.252297
0.031000 0.252095
0.031500 0.252307
0.032000 0.252949
0.032500 0.254012
0.033000 0.255463
0.033500 0.257244
0.034000 0.259278
0.034500 0.261467
0.035000 0.263703
0.035500 0.265873
0.036000 0.267863
0.036500 0.269572
0.037000 0.270915
0.037500 0.271829
0.038000 0.272284
0.038500 0.272277
0.039000 0.271840
0.039500 0.271032
0.040000 0.269938
0.040500 0.268663
0.041000 0.267320
0.041500 0.266026
0.042000 0.264896
0.042500 0.264031
0.043000 0.263517
0.043500 0.263417
0.044000 0.263772
0.044500 0.264599
0.045000 0.265887
0.045500 0.267600
0.046000 0.269677
0.046500 0.272035
0.047000 0.274572
0.047500 0.277172
0.048000 0.279712
0.048500 0.282068
0.049000 0.284129
0.049500 0.285796
0.050000 0.287000
0.050500 0.287698
0.051000 0.287884
0.051500 0.287586
0.052000 0.286864
0.052500 0.285806
0.053000 0.284522
0.053500 0.283136
0.054000 0.281774
0.054500 0.280559
0.055000 0.279605
0.055500 0.279003
0.056000 0.278825
0.056500 0.279117
0.057000 0.279895
0.057500 0.281150
0.058000 0.282843
0.058500 0.284907
0.059000 0.287253
0.059500 0.289772
0.060000 0.292338
0.060500 0.294821
0.061000 0.297091
0.061500 0.299030
0.062000 0.300539
0.062500 0.301548
0.063000 0.302019
0.063500 0.301953
0.064000 0.301386
0.064500 0.300388
0.065000 0.299059
0.065500 0.297519
0.066000 0.295900
0.066500 0.294337
0.067000 0.292960
0.067500 0.291885
0.068000 0.291208
0.068500 0.291002
0.069000 0.291311
0.069500 0.292154
0.070000 0.293518
0.070500 0.295361
0.071000 0.297616
0.071500 0.300187
0.072000 0.302960
0.072500 0.305803
0.073000 0.308577
0.073500 0.311144
0.074000 0.313376
0.074500 0.315167
0.075000 0.316439
0.075500 0.317148
0.076000 0.317290
0.076500 0.316903
0.077000 0.316058
0.077500 0.314859
0.078000 0.313433
0.078500 0.311921
0.079000 0.310466
0.079500 0.309204
0.080000 0.308260
0.080500 0.307733
0.081000 0.307701
0.081500 0.308209
0.082000 0.309273
0.082500 0.310876
0.083000 0.312972
0.083500 0.315481
0.084000 0.318300
0.084500 0.321300
0.085000 0.324338
0.085500 0.327262
0.086000 0.329925
0.086500 0.332191
0.087000 0.333946
0.087500 0.335111
0.088000 0.335645
0.088500 0.335551
0.089000 0.334872
0.089500 0.333693
0.090000 0.332129
0.090500 0.330319
0.091000 0.328416
0.091500 0.326573
0.092000 0.324935
0.092500 0.323632
0.093000 0.322768
0.093500 0.322419
0.094000 0.322631
0.094500 0.323416
0.095000 0.324753
0.095500 0.326587
0.096000 0.328836
0.096500 0.331389
0.097000 0.334116
0.097500 0.336871
0.098000 0.339507
0.098500 0.341879
0.099000 0.343859
0.099500 0.345344
0.100000 0.346266
0.100500 0.346591
0.101000 0.346330
0.101500 0.345533
0.102000 0.344286
0.102500 0.342705
0.103000 0.340930
0.103500 0.339110
0.104000 0.337395
0.104500 0.335928
0.105000 0.334835
0.105500 0.334217
0.106000 0.334146
0.106500 0.334664
0.107000 0.335777
0.107500 0.337456
0.108000 0.339642
0.108500 0.342238
0.109000 0.345124
0.109500 0.348156
0.110000 0.351175
0.110500 0.354017
0.111000 0.356526
0.111500 0.358564
0.112000 0.360022
0.112500 0.360832
0.113000 0.360967
0.113500 0.360449
0.114000 0.359345
0.114500 0.357761
0.115000 0.355836
0.115500 0.353726
0.116000 0.351597
0.116500 0.349611
0.117000 0.347918
0.117500 0.346645
0.118000 0.345890
0.118500 0.345720
0.119000 0.346169
0.119500 0.347231
0.120000 0.348870
0.120500 0.351012
0.121000 0.353555
0.121500 0.356370
0.122000 0.359308
0.122500 0.362213
0.123000 0.364924
0.123500 0.367294
0.124000 0.369197
0.124500 0.370537
0.125000 0.371255
0.125500 0.371338
0.126000 0.370813
0.126500 0.369750
0.127000 0.368256
0.127500 0.366466
0.128000 0.364533
0.128500 0.362619
0.129000 0.360884
0.129500 0.359473
0.130000 0.358512
0.130500 0.358099
0.131000 0.358301
0.131500 0.359149
0.132000 0.360637
0.132500 0.362725
0.133000 0.365336
0.133500 0.368360
0.134000 0.371660
0.134500 0.375078
0.135000 0.378444
0.135500 0.381585
0.136000 0.384342
0.136500 0.386577
0.137000 0.388186
0.137500 0.389108
0.138000 0.389329
0.138500 0.388884
0.139000 0.387855
0.139500 0.386362
0.140000 0.384557
0.140500 0.382610
0.141000 0.380697
0.141500 0.378990
0.142000 0.377644
0.142500 0.376790
0.143000 0.376528
0.143500 0.376921
0.144000 0.377996
0.144500 0.379740
0.145000 0.382099
0.145500 0.384984
0.146000 0.388271
0.146500 0.391807
0.147000 0.395420
0.147500 0.398925
0.148000 0.402142
0.148500 0.404903
0.149000 0.407069
0.149500 0.408540
0.150000 0.409260
0.150500 0.409228
0.151000 0.408492
0.151500 0.407148
0.152000 0.405333
0.152500 0.403213
0.153000 0.400970
0.153500 0.398790
0.154000 0.396853
0.154500 0.395315
0.155000 0.394310
0.155500 0.393932
0.156000 0.394242
0.156500 0.395258
0.157000 0.396955
0.157500 0.399270
0.158000 0.402102
0.158500 0.405315
0.159000 0.408747
0.159500 0.412218
0.160000 0.415540
0.160500 0.418533
0.161000 0.421032
0.161500 0.422907
0.162000 0.424066
0.162500 0.424467
0.163000 0.424119
0.163500 0.423083
0.164000 0.421466
0.164500 0.419415
0.165000 0.417104
0.165500 0.414720
0.166000 0.412452
0.166500 0.410478
0.167000 0.408954
0.167500 0.408004
0.168000 0.407717
0.168500 0.408139
0.169000 0.409277
0.169500 0.411090
0.170000 0.413500
0.170500 0.416389
0.171000 0.419605
0.171500 0.422974
0.172000 0.426305
0.172500 0.429406
0.173000 0.432095
0.173500 0.434213
0.174000 0.435640
0.174500 0.436299
0.175000 0.436165
0.175500 0.435265
0.176000 0.433680
0.176500 0.431533
0.177000 0.428986
0.177500 0.426222
0.178000 0.423438
0.178500 0.420828
0.179000 0.418570
0.179500 0.416820
0.180000 0.415700
0.180500 0.415296
0.181000 0.415652
0.181500 0.416770
0.182000 0.418607
0.182500 0.421081
0.183000 0.424069
0.183500 0.427417
0.184000 0.430943
0.184500 0.434451
0.185000 0.437741
0.185500 0.440622
0.186000 0.442928
0.186500 0.444529
0.187000 0.445344
0.187500 0.445342
0.188000 0.444551
0.188500 0.443052
0.189000 0.440974
0.189500 0.438482
0.190000 0.435767
0.190500 0.433031
0.191000 0.430472
0.191500 0.428272
0.192000 0.426585
0.192500 0.425532
0.193000 0.425194
0.193500 0.425608
0.194000 0.426765
0.194500 0.428613
0.195000 0.431056
0.195500 0.433959
0.196000 0.437154
0.196500 0.440452
0.197000 0.443648
0.197500 0.446541
0.198000 0.448944
0.198500 0.450704
0.199000 0.451707
0.199500 0.451893
0.200000 0.451261
0.200500 0.449564
0.201000 0.447383
0.201500 0.444914
0.202000 0.442354
0.202500 0.439894
0.203000 0.437698
0.203500 0.435906
0.204000 0.434619
0.204500 0.433903
0.205000 0.433787
0.205500 0.434264
0.206000 0.435295
0.206500 0.436811
0.207000 0.438722
0.207500 0.440921
0.208000 0.443289
0.208500 0.445705
0.209000 0.448052
0.209500 0.450225
0.210000 0.452136
0.210500 0.453719
0.211000 0.454935
0.211500 0.455771
0.212000 0.456241
0.212500 0.456380
0.213000 0.456245
0.213500 0.455906
0.214000 0.455441
0.214500 0.454932
0.215000 0.454455
0.215500 0.454081
0.216000 0.453868
0.216500 0.453860
0.217000 0.454085
0.217500 0.454553
0.218000 0.455261
0.218500 0.456187
0.219000 0.457300
0.219500 0.458557
0.220000 0.459909
0.220500 0.461302
0.221000 0.462684
0.221500 0.464005
0.222000 0.465221
0.222500 0.466298
0.223000 0.467210
0.223500 0.467944
0.224000 0.468498
0.224500 0.468881
0.225000 0.469113
0.225500 0.469218
0.226000 0.469229
0.226500 0.469181
0.227000 0.469109
0.227500 0.469048
0.228000 0.469026
0.228500 0.469070
0.229000 0.469198
0.229500 0.469421
0.230000 0.469744
0.230500 0.470163
0.231000 0.470671
0.231500 0.471251
0.232000 0.471887
0.232500 0.472558
0.233000 0.473241
0.233500 0.473916
0.234000 0.474562
0.234500 0.475163
0.235000 0.475707
0.235500 0.476185
0.236000 0.476593
0.236500 0.476933
0.237000 0.477210
0.237500 0.477433
0.238000 0.477614
0.238500 0.477767
0.239000 0.477906
0.239500 0.478046
0.240000 0.478201
0.240500 0.478382
0.241000 0.478598
0.241500 0.478856
0.242000 0.479159
0.242500 0.479507
0.243000 0.479897
0.243500 0.480323
0.244000 0.480779
0.244500 0.481254
0.245000 0.481740
0.245500 0.482227
0.246000 0.482704
0.246500 0.483164
0.247000 0.483600
0.247500 0.484006
0.248000 0.484380
0.248500 0.484722
0.249000 0.485032
0.249500 0.485313
0.250000 0.485571
0.250500 0.485811
0.251000 0.486039
0.251500 0.486264
0.252000 0.486490
0.252500 0.486725
0.253000 0.486973
0.253500 0.487239
0.254000 0.487526
0.254500 0.487833
0.255000 0.488162
0.255500 0.488511
0.256000 0.488878
0.256500 0.489259
0.257000 0.489651
0.257500 0.490048
0.258000 0.490447
0.258500 0.490844
0.259000 0.491236
0.259500 0.491618
0.260000 0.491990
0.260500 0.492350
0.261000 0.492699
0.261500 0.493035
0.262000 0.493362
0.262500 0.493681
0.263000 0.493994
0.263500 0.494305
0.264000 0.494616
0.264500 0.494931
0.265000 0.495251
0.265500 0.495580
0.266000 0.495918
0.266500 0.496268
0.267000 0.496630
0.267500 0.497003
0.268000 0.497388
0.268500 0.497783
0.269000 0.498187
0.269500 0.498598
0.270000 0.499015
0.270500 0.499436
0.271000 0.499859
0.271500 0.500283
0.272000 0.500705
0.272500 0.501126
0.273000 0.501545
0.273500 0.501960
0.274000 0.502373
0.274500 0.502783
0.275000 0.503191
0.275500 0.503598
0.276000 0.504005
0.276500 0.504412
0.277000 0.504821
0.277500 0.505232
0.278000 0.505646
0.278500 0.506064
0.279000 0.506485
0.279500 0.506909
0.280000 0.507337
0.280500 0.507768
0.281000 0.508202
0.281500 0.508637
0.282000 0.509072
0.282500 0.509508
0.283000 0.509944
0.283500 0.510377
0.284000 0.510809
0.284500 0.511238
0.285000 0.511664
0.285500 0.512086
0.286000 0.512505
0.286500 0.512922
0.287000 0.513335
0.287500 0.513745
0.288000 0.514153
0.288500 0.514560
0.289000 0.514965
0.289500 0.515369
0.290000 0.515772
0.290500 0.516176
0.291000 0.516579
0.291500 0.516983
0.292000 0.517387
0.292500 0.517791
0.293000 0.518195
0.293500 0.518599
0.294000 0.519003
0.294500 0.519406
0.295000 0.519808
0.295500 0.520209
0.296000 0.520609
0.296500 0.521006
0.297000 0.521402
0.297500 0.521796
0.298000 0.522189
0.298500 0.522579
0.299000 0.522967
0.299500 0.523354
0.300000 0.523739
0.300500 0.524122
0.301000 0.524504
0.301500 0.524885
0.302000 0.525265
0.302500 0.525644
0.303000 0.526022
0.303500 0.526400
0.304000 0.526776
0.304500 0.527152
0.305000 0.527526
0.305500 0.527899
0.306000 0.528270
0.306500 0.528640
0.307000 0.529008
0.307500 0.529373
0.308000 0.529737
0.308500 0.530098
0.309000 0.530456
0.309500 0.530811
0.310000 0.531164
0.310500 0.531514
0.311000 0.531861
0.311500 0.532205
0.312000 0.532547
0.312500 0.532886
0.313000 0.533223
0.313500 0.533558
0.314000 0.533891
0.314500 0.534222
0.315000 0.534551
0.315500 0.534879
0.316000 0.535205
0.316500 0.535531
0.317000 0.535855
0.317500 0.536178
0.318000 0.536500
0.318500 0.536822
0.319000 0.537142
0.319500 0.537462
0.320000 0.537782
0.320500 0.538100
0.321000 0.538418
0.321500 0.538736
0.322000 0.539052
0.322500 0.539369
0.323000 0.539684
0.323500 0.540000
0.324000 0.540315
0.324500 0.540630
0.325000 0.540944
0.325500 0.541258
0.326000 0.541572
0.326500 0.541886
0.327000 0.542200
0.327500 0.542513
0.328000 0.542826
0.328500 0.543140
0.329000 0.543453
0.329500 0.543765
0.330000 0.544078
0.330500 0.544390
0.331000 0.544702
0.331500 0.545014
0.332000 0.545325
0.332500 0.545635
0.333000 0.545945
0.333500 0.546254
0.334000 0.546563
0.334500 0.546871
0.335000 0.547179
0.335500 0.547486
0.336000 0.547793
0.336500 0.548098
0.337000 0.548404
0.337500 0.548709
0.338000 0.549013
0.338500 0.549318
0.339000 0.549622
0.339500 0.549925
0.340000 0.550229
0.340500 0.550533
0.341000 0.550837
0.341500 0.551141
0.342000 0.551445
0.342500 0.551749
0.343000 0.552054
0.343500 0.552359
0.344000 0.552665
0.344500 0.552972
0.345000 0.553279
0.345500 0.553587
0.346000 0.553896
0.346500 0.554205
0.347000 0.554516
0.347500 0.554828
0.348000 0.555142
0.348500 0.555456
0.349000 0.555772
0.349500 0.556089
0.350000 0.556408
0.350500 0.556728
0.351000 0.557049
0.351500 0.557373
0.352000 0.557698
0.352500 0.558024
0.353000 0.558353
0.353500 0.558683
0.354000 0.559015
0.354500 0.559348
0.355000 0.559684
0.355500 0.560021
0.356000 0.560359
0.356500 0.560700
0.357000 0.561042
0.357500 0.561386
0.358000 0.561732
0.358500 0.562079
0.359000 0.562428
0.359500 0.562779
0.360000 0.563131
0.360500 0.563484
0.361000 0.563840
0.361500 0.564197
0.362000 0.564555
0.362500 0.564915
0.363000 0.565276
0.363500 0.565639
0.364000 0.566003
0.364500 0.566368
0.365000 0.566735
0.365500 0.567103
0.366000 0.567472
0.366500 0.567843
0.367000 0.568215
0.367500 0.568588
0.368000 0.568962
0.368500 0.569338
0.369000 0.569714
0.369500 0.570092
0.370000 0.570470
0.370500 0.570850
0.371000 0.571230
0.371500 0.571611
0.372000 0.571993
0.372500 0.572376
0.373000 0.572760
0.373500 0.573144
0.374000 0.573529
0.374500 0.573914
0.375000 0.574300
0.375500 0.574687
0.376000 0.575073
0.376500 0.575461
0.377000 0.575848
0.377500 0.576236
0.378000 0.576624
0.378500 0.577012
0.379000 0.577400
0.379500 0.577788
0.380000 0.578176
0.380500 0.578564
0.381000 0.578952
0.381500 0.579340
0.382000 0.579727
0.382500 0.580114
0.383000 0.580501
0.383500 0.580887
0.384000 0.581273
0.384500 0.581659
0.385000 0.582044
0.385500 0.582428
0.386000 0.582812
0.386500 0.583196
0.387000 0.583578
0.387500 0.583960
0.388000 0.584342
0.388500 0.584723
0.389000 0.585103
0.389500 0.585482
0.390000 0.585860
0.390500 0.586238
0.391000 0.586615
0.391500 0.586992
0.392000 0.587367
0.392500 0.587742
0.393000 0.588116
0.393500 0.588489
0.394000 0.588862
0.394500 0.589234
0.395000 0.589605
0.395500 0.589976
0.396000 0.590345
0.396500 0.590714
0.397000 0.591083
0.397500 0.591451
0.398000 0.591818
0.398500 0.592184
0.399000 0.592550
0.399500 0.592915
0.400000 0.593280
0.400500 0.593644
0.401000 0.594007
0.401500 0.594370
0.402000 0.594732
0.402500 0.595094
0.403000 0.595455
0.403500 0.595816
0.404000 0.596176
0.404500 0.596535
0.405000 0.596894
0.405500 0.597252
0.406000 0.597610
0.406500 0.597968
0.407000 0.598324
0.407500 0.598681
0.408000 0.599036
0.408500 0.599391
0.409000 0.599746
0.409500 0.600100
0.410000 0.600453
0.410500 0.600805
0.411000 0.601157
0.411500 0.601509
0.412000 0.601859
0.412500 0.602209
0.413000 0.602558
0.413500 0.602906
0.414000 0.603254
0.414500 0.603601
0.415000 0.603947
0.415500 0.604292
0.416000 0.604637
0.416500 0.604980
0.417000 0.605323
0.417500 0.605665
0.418000 0.606005
0.418500 0.606345
0.419000 0.606684
0.419500 0.607022
0.420000 0.607359
0.420500 0.607695
0.421000 0.608031
0.421500 0.608365
0.422000 0.608698
0.422500 0.609030
0.423000 0.609361
0.423500 0.609691
0.424000 0.610020
0.424500 0.610348
0.425000 0.610675
0.425500 0.611001
0.426000 0.611326
0.426500 0.611650
0.427000 0.611973
0.427500 0.612295
0.428000 0.612616
0.428500 0.612937
0.429000 0.613256
0.429500 0.613574
0.430000 0.613891
0.430500 0.614208
0.431000 0.614523
0.431500 0.614838
0.432000 0.615152
0.432500 0.615465
0.433000 0.615777
0.433500 0.616089
0.434000 0.616399
0.434500 0.616709
0.435000 0.617019
0.435500 0.617327
0.436000 0.617635
0.436500 0.617942
0.437000 0.618249
0.437500 0.618555
0.438000 0.618861
0.438500 0.619166
0.439000 0.619470
0.439500 0.619774
0.440000 0.620078
0.440500 0.620381
0.441000 0.620684
0.441500 0.620986
0.442000 0.621288
0.442500 0.621589
0.443000 0.621891
0.443500 0.622192
0.444000 0.622492
0.444500 0.622793
0.445000 0.623093
0.445500 0.623393
0.446000 0.623692
0.446500 0.623991
0.447000 0.624291
0.447500 0.624590
0.448000 0.624888
0.448500 0.625187
0.449000 0.625486
0.449500 0.625784
0.450000 0.626082
0.450500 0.626380
0.451000 0.626678
0.451500 0.626976
0.452000 0.627274
0.452500 0.627571
0.453000 0.627869
0.453500 0.628166
0.454000 0.628463
0.454500 0.628761
0.455000 0.629058
0.455500 0.629355
0.456000 0.629652
0.456500 0.629948
0.457000 0.630245
0.457500 0.630542
0.458000 0.630838
0.458500 0.631134
0.459000 0.631430
0.459500 0.631727
0.460000 0.632022
0.460500 0.632318
0.461000 0.632614
0.461500 0.632909
0.462000 0.633205
0.462500 0.633500
0.463000 0.633795
0.463500 0.634089
0.464000 0.634384
0.464500 0.634678
0.465000 0.634973
0.465500 0.635267
0.466000 0.635560
0.466500 0.635854
0.467000 0.636147
0.467500 0.636440
0.468000 0.636733
0.468500 0.637025
0.469000 0.637318
0.469500 0.637610
0.470000 0.637901
0.470500 0.638193
0.471000 0.638484
0.471500 0.638775
0.472000 0.639066
0.472500 0.639356
0.473000 0.639646
0.473500 0.639936
0.474000 0.640225
0.474500 0.640514
0.475000 0.640803
0.475500 0.641092
0.476000 0.641380
0.476500 0.641668
0.477000 0.641956
0.477500 0.642243
0.478000 0.642530
0.478500 0.642817
0.479000 0.643103
0.479500 0.643390
0.480000 0.643675
0.480500 0.643961
0.481000 0.644246
0.481500 0.644531
0.482000 0.644816
0.482500 0.645100
0.483000 0.645384
0.483500 0.645668
0.484000 0.645951
0.484500 0.646234
0.485000 0.646517
0.485500 0.646799
0.486000 0.647081
0.486500 0.647363
0.487000 0.647645
0.487500 0.647926
0.488000 0.648206
0.488500 0.648487
0.489000 0.648767
0.489500 0.649046
0.490000 0.649326
0.490500 0.649605
0.491000 0.649883
0.491500 0.650161
0.492000 0.650439
0.492500 0.650716
0.493000 0.650993
0.493500 0.651269
0.494000 0.651545
0.494500 0.651821
0.495000 0.652096
0.495500 0.652370
0.496000 0.652644
0.496500 0.652918
0.497000 0.653191
0.497500 0.653463
0.498000 0.653735
0.498500 0.654006
0.499000 0.654276
0.499500 0.654546
0.500000 0.654816
0.509900 0.660234
0.519800 0.665357
0.529700 0.670055
0.539600 0.674231
0.549500 0.677830
0.559400 0.680867
0.569300 0.683461
0.579200 0.685811
0.589100 0.688094
0.599000 0.690376
0.608900 0.692610
0.618800 0.694668
0.628700 0.696376
0.638600 0.697604
0.648500 0.698384
0.658400 0.698915
0.668300 0.699447
0.678200 0.700180
0.688100 0.701255
0.698000 0.702774
0.707900 0.704794
0.717800 0.707302
0.727700 0.710202
0.737600 0.713310
0.747500 0.716383
0.757400 0.719214
0.767300 0.721730
0.777200 0.724010
0.787100 0.726160
0.797000 0.728203
0.806900 0.730118
0.816800 0.731980
0.826700 0.733992
0.836600 0.736365
0.846500 0.739178
0.856400 0.742368
0.866300 0.745829
0.876200 0.749473
0.886100 0.753189
0.896000 0.756801
0.905900 0.760116
0.915800 0.763027
0.925700 0.765573
0.935600 0.767924
0.945500 0.770355
0.955400 0.773157
0.965300 0.776498
0.975200 0.780322
0.985100 0.784372
0.995000 0.788351
1.004900 0.792100
1.014800 0.795647
1.024700 0.799108
1.034600 0.802599
1.044500 0.806192
1.054400 0.809907
1.064300 0.813732
1.074200 0.817710
1.084100 0.821962
1.094000 0.826588
1.103900 0.831518
1.113800 0.836470
1.123700 0.841048
1.133600 0.844899
1.143500 0.847830
1.153400 0.849855
1.163300 0.851163
1.173200 0.852043
1.183100 0.852808
1.193000 0.853715
1.202900 0.854933
1.212800 0.856540
1.222700 0.858549
1.232600 0.860912
1.242500 0.863528
1.252400 0.866304
1.262300 0.869194
1.272200 0.872180
1.282100 0.875200
1.292000 0.878153
1.301900 0.880960
1.311800 0.883601
1.321700 0.886110
1.331600 0.888566
1.341500 0.891040
1.351400 0.893542
1.361300 0.895996
1.371200 0.898243
1.381100 0.900078
1.391000 0.901322
1.400900 0.901911
1.410800 0.901962
1.420700 0.901779
1.430600 0.901745
1.440500 0.902133
1.450400 0.903002
1.460300 0.904248
1.470200 0.905759
1.480100 0.907511
1.490000 0.909546
1.499900 0.911898
1.509800 0.914596
1.519700 0.917709
1.529600 0.921334
1.539500 0.925520
1.549400 0.930231
1.559300 0.935405
1.569200 0.940978
1.579100 0.946845
1.589000 0.952845
1.598900 0.958837
1.608800 0.964718
1.618700 0.970399
1.628600 0.975876
1.638500 0.981337
1.648400 0.987100
1.658300 0.993397
1.668200 1.000233
1.678100 1.007468
1.688000 1.014959
1.697900 1.022582
1.707800 1.030212
1.717700 1.037761
1.727600 1.045223
1.737500 1.052651
1.747400 1.060110
1.757300 1.067653
1.767200 1.075325
1.777100 1.083213
1.787000 1.091510
1.796900 1.100500
1.806800 1.110436
1.816700 1.121430
1.826600 1.133499
1.836500 1.146690
1.846400 1.161093
1.856300 1.176636
1.866200 1.192926
1.876100 1.209406
1.886000 1.225701
1.895900 1.241818
1.905800 1.258071
1.915700 1.274880
1.925600 1.292583
1.935500 1.311229
1.945400 1.330287
1.955300 1.348439
1.965200 1.363756
1.975100 1.374551
1.985000 1.380424
1.994900 1.382496
2.004800 1.382628
2.014700 1.382445
2.024600 1.382865
2.034500 1.384172
2.044400 1.386255
2.054300 1.388793
2.064200 1.391375
2.074100 1.393632
2.084000 1.395423
2.093900 1.396965
2.103800 1.398657
2.113700 1.400749
2.123600 1.403208
2.133500 1.405903
2.143400 1.408790
2.153300 1.411834
2.163200 1.414848
2.173100 1.417546
2.183000 1.419728
2.192900 1.421388
2.202800 1.422720
2.212700 1.424039
2.222600 1.425662
2.232500 1.427844
2.242400 1.430791
2.252300 1.434645
2.262200 1.439432
2.272100 1.445024
2.282000 1.451164
2.291900 1.457521
2.301800 1.463706
2.311700 1.469307
2.321600 1.473963
2.331500 1.477463
2.341400 1.479787
2.351300 1.481106
2.361200 1.481708
2.371100 1.481830
2.381000 1.481488
2.390900 1.480473
2.400800 1.478534
2.410700 1.475572
2.420600 1.471676
2.430500 1.467065
2.440400 1.461986
2.450300 1.456578
2.460200 1.450783
2.470100 1.444411
2.480000 1.437330
2.489900 1.429613
2.499800 1.421534
2.509700 1.413481
2.519600 1.405837
2.529500 1.398832
2.539400 1.392483
2.549300 1.386691
2.559200 1.381330
2.569100 1.376235
2.579000 1.371282
2.588900 1.366557
2.598800 1.362374
2.608700 1.359088
2.618600 1.356900
2.628500 1.355758
2.638400 1.355331
2.648300 1.355111
2.658200 1.354693
2.668100 1.354037
2.678000 1.353371
2.687900 1.352827
2.697800 1.352186
2.707700 1.350893
2.717600 1.348326
2.727500 1.344202
2.737400 1.338762
2.747300 1.332512
2.757200 1.325814
2.767100 1.318798
2.777000 1.311544
2.786900 1.304222
2.796800 1.297032
2.806700 1.290104
2.816600 1.283479
2.826500 1.277109
2.836400 1.270849
2.846300 1.264478
2.856200 1.257810
2.866100 1.250812
2.876000 1.243617
2.885900 1.236437
2.895800 1.229404
2.905700 1.222454
2.915600 1.215396
2.925500 1.208084
2.935400 1.200530
2.945300 1.192879
2.955200 1.185314
2.965100 1.177980
2.975000 1.170933
2.984900 1.164162
2.994800 1.157630
3.004700 1.151316
3.014600 1.145252
3.024500 1.139516
3.034400 1.134154
3.044300 1.129099
3.054200 1.124163
3.064100 1.119109
3.074000 1.113770
3.083900 1.108143
3.093800 1.102362
3.103700 1.096584
3.113600 1.090871
3.123500 1.085189
3.133400 1.079518
3.143300 1.073926
3.153200 1.068486
3.163100 1.063121
3.173000 1.057602
3.182900 1.051716
3.192800 1.045382
3.202700 1.038643
3.212600 1.031652
3.222500 1.024681
3.232400 1.018022
3.242300 1.011828
3.252200 1.006032
3.262100 1.000424
3.272000 0.994811
3.281900 0.989132
3.291800 0.983468
3.301700 0.977922
3.311600 0.972538
3.321500 0.967323
3.331400 0.962291
3.341300 0.957449
3.351200 0.952784
3.361100 0.948281
3.371000 0.943943
3.380900 0.939770
3.390800 0.935706
3.400700 0.931643
3.410600 0.927489
3.420500 0.923263
3.430400 0.919144
3.440300 0.915378
3.450200 0.912101
3.460100 0.909277
3.470000 0.906787
3.479900 0.904528
3.489800 0.902399
3.499700 0.900258
3.509600 0.897955
3.519500 0.895436
3.529400 0.892761
3.539300 0.890064
3.549200 0.887467
3.559100 0.885011
3.569000 0.882628
3.578900 0.880207
3.588800 0.877684
3.598700 0.875036
3.608600 0.872192
3.618500 0.869039
3.628400 0.865532
3.638300 0.861773
3.648200 0.857925
3.658100 0.854123
3.668000 0.850477
3.677900 0.847103
3.687800 0.844088
3.697700 0.841449
3.707600 0.839177
3.717500 0.837305
3.727400 0.835907
3.737300 0.835014
3.747200 0.834555
3.757100 0.834367
3.767000 0.834266
3.776900 0.834105
3.786800 0.833822
3.796700 0.833476
3.806600 0.833272
3.816500 0.833522
3.826400 0.834522
3.836300 0.836391
3.846200 0.838983
3.856100 0.841900
3.866000 0.844532
3.875900 0.846089
3.885800 0.845746
3.895700 0.843053
3.905600 0.838276
3.915500 0.832231
3.925400 0.825784
3.935300 0.819509
3.945200 0.813677
3.955100 0.808373
3.965000 0.803559
3.974900 0.799147
3.984800 0.795105
3.994700 0.791484
4.004600 0.788367
4.014500 0.785809
4.024400 0.783823
4.034300 0.782383
4.044200 0.781420
4.054100 0.780800
4.064000 0.780310
4.073900 0.779684
4.083800 0.778653
4.093700 0.777068
4.103600 0.774977
4.113500 0.772573
4.123400 0.770056
4.133300 0.767542
4.143200 0.765072
4.153100 0.762678
4.163000 0.760406
4.172900 0.758255
4.182800 0.756132
4.192700 0.753888
4.202600 0.751425
4.212500 0.748727
4.222400 0.745799
4.232300 0.742643
4.242200 0.739357
4.252100 0.736208
4.262000 0.733506
4.271900 0.731401
4.281800 0.729818
4.291700 0.728569
4.301600 0.727492
4.311500 0.726503
4.321400 0.725567
4.331300 0.724630
4.341200 0.723566
4.351100 0.722218
4.361000 0.720474
4.370900 0.718337
4.380800 0.715897
4.390700 0.713249
4.400600 0.710396
4.410500 0.707222
4.420400 0.703587
4.430300 0.699482
4.440200 0.695087
4.450100 0.690695
4.460000 0.686597
4.469900 0.683024
4.479800 0.680120
4.489700 0.677892
4.499600 0.676133
4.509500 0.674378
4.519400 0.672037
4.529300 0.668706
4.539200 0.664389
4.549100 0.659398
4.559000 0.654121
4.568900 0.648879
4.578800 0.643891
4.588700 0.639280
4.598600 0.635070
4.608500 0.631204
4.618400 0.627576
4.628300 0.624088
4.638200 0.620706
4.648100 0.617446
4.658000 0.614312
4.667900 0.611268
4.677800 0.608288
4.687700 0.605396
4.697600 0.602665
4.707500 0.600171
4.717400 0.597951
4.727300 0.595968
4.737200 0.594110
4.747100 0.592222
4.757000 0.590161
4.766900 0.587876
4.776800 0.585465
4.786700 0.583136
4.796600 0.581115
4.806500 0.579597
4.816400 0.578734
4.826300 0.578591
4.836200 0.579093
4.846100 0.580049
4.856000 0.581249
4.865900 0.582509
4.875800 0.583655
4.885700 0.584535
4.895600 0.585085
4.905500 0.585385
4.915400 0.585599
4.925300 0.585875
4.935200 0.586275
4.945100 0.586780
4.955000 0.587320
4.964900 0.587825
4.974800 0.588245
4.984700 0.588547
4.994600 0.588658
5.004500 0.588441
5.014400 0.587727
5.024300 0.586374
5.034200 0.584284
5.044100 0.581421
5.054000 0.577846
5.063900 0.573771
5.073800 0.569550
5.083700 0.565569
5.093600 0.562105
5.103500 0.559246
5.113400 0.556898
5.123300 0.554871
5.133200 0.552965
5.143100 0.551011
5.153000 0.548907
5.162900 0.546661
5.172800 0.544379
5.182700 0.542153
5.192600 0.539987
5.202500 0.537841
5.212400 0.535682
5.222300 0.533513
5.232200 0.531379
5.242100 0.529354
5.252000 0.527527
5.261900 0.525956
5.271800 0.524633
5.281700 0.523493
5.291600 0.522462
5.301500 0.521492
5.311400 0.520585
5.321300 0.519804
5.331200 0.519256
5.341100 0.519027
5.351000 0.519126
5.360900 0.519470
5.370800 0.519869
5.380700 0.520048
5.390600 0.519752
5.400500 0.518885
5.410400 0.517535
5.420300 0.515871
5.430200 0.514068
5.440100 0.512296
5.450000 0.510719
5.459900 0.509450
5.469800 0.508518
5.479700 0.507879
5.489600 0.507453
5.499500 0.507163
5.509400 0.506948
5.519300 0.506806
5.529200 0.506806
5.539100 0.507040
5.549000 0.507536
5.558900 0.508251
5.568800 0.509097
5.578700 0.509976
5.588600 0.510803
5.598500 0.511553
5.608400 0.512262
5.618300 0.512955
5.628200 0.513582
5.638100 0.514001
5.648000 0.514013
5.657900 0.513439
5.667800 0.512226
5.677700 0.510482
5.687600 0.508421
5.697500 0.506292
5.707400 0.504317
5.717300 0.502685
5.727200 0.501551
5.737100 0.500991
5.747000 0.500930
5.756900 0.501160
5.766800 0.501470
5.776700 0.501756
5.786600 0.502010
5.796500 0.502263
5.806400 0.502551
5.816300 0.502909
5.826200 0.503363
5.836100 0.503934
5.846000 0.504641
5.855900 0.505477
5.865800 0.506401
5.875700 0.507359
5.885600 0.508333
5.895500 0.509343
5.905400 0.510423
5.915300 0.511603
5.925200 0.512925
5.935100 0.514381
5.945000 0.515811
5.954900 0.516877
5.964800 0.517209
5.974700 0.516536
5.984600 0.514743
5.994500 0.511883
6.004400 0.508155
6.014300 0.503832
6.024200 0.499187
6.034100 0.494451
6.044000 0.489835
6.053900 0.485536
6.063800 0.481677
6.073700 0.478256
6.083600 0.475161
6.093500 0.472239
6.103400 0.469380
6.113300 0.466546
6.123200 0.463753
6.133100 0.461025
6.143000 0.458389
6.152900 0.455889
6.162800 0.453550
6.172700 0.451336
6.182600 0.449171
6.192500 0.446991
6.202400 0.444802
6.212300 0.442697
6.222200 0.440826
6.232100 0.439297
6.242000 0.438120
6.251900 0.437239
6.261800 0.436592
6.271700 0.436141
6.281600 0.435872
6.291500 0.435794
6.301400 0.435925
6.311300 0.436265
6.321200 0.436763
6.331100 0.437310
6.341000 0.437759
6.350900 0.437948
6.360800 0.437741
6.370700 0.437062
6.380600 0.435921
6.390500 0.434405
6.400400 0.432628
6.410300 0.430689
6.420200 0.428677
6.430100 0.426695
6.440000 0.424874
6.449900 0.423333
6.459800 0.422143
6.469700 0.421312
6.479600 0.420803
6.489500 0.420544
6.499400 0.420447
6.509300 0.420429
6.519200 0.420436
6.529100 0.420454
6.539000 0.420483
6.548900 0.420491
6.558800 0.420377
6.568700 0.419980
6.578600 0.419130
6.588500 0.417734
6.598400 0.415804
6.608300 0.413424
6.618200 0.410723
6.628100 0.407852
6.638000 0.404950
6.647900 0.402125
6.657800 0.399471
6.667700 0.397079
6.677600 0.395001
6.687500 0.393211
6.697400 0.391580
6.707300 0.389930
6.717200 0.388138
6.727100 0.386195
6.737000 0.384177
6.746900 0.382162
6.756800 0.380185
6.766700 0.378243
6.776600 0.376335
6.786500 0.374492
6.796400 0.372765
6.806300 0.371212
6.816200 0.369881
6.826100 0.368819
6.836000 0.368052
6.845900 0.367546
6.855800 0.367154
6.865700 0.366647
6.875600 0.365852
6.885500 0.364759
6.895400 0.363486
6.905300 0.362141
6.915200 0.360737
6.925100 0.359212
6.935000 0.357523
6.944900 0.355704
6.954800 0.353834
6.964700 0.351990
6.974600 0.350227
6.984500 0.348581
6.994400 0.347034
7.004300 0.345510
7.014200 0.343922
7.024100 0.342233
7.034000 0.340459
7.043900 0.338629
7.053800 0.336756
7.063700 0.334833
7.073600 0.332866
7.083500 0.330905
7.093400 0.329023
7.103300 0.327293
7.113200 0.325772
7.123100 0.324510
7.133000 0.323540
7.142900 0.322867
7.152800 0.322455
7.162700 0.322243
7.172600 0.322189
7.182500 0.322264
7.192400 0.322426
7.202300 0.322622
7.212200 0.322814
7.222100 0.322989
7.232000 0.323156
7.241900 0.323313
7.251800 0.323423
7.261700 0.323399
7.271600 0.323140
7.281500 0.322590
7.291400 0.321779
7.301300 0.320794
7.311200 0.319717
7.321100 0.318609
7.331000 0.317523
7.340900 0.316512
7.350800 0.315619
7.360700 0.314860
7.370600 0.314234
7.380500 0.313725
7.390400 0.313300
7.400300 0.312903
7.410200 0.312487
7.420100 0.312023
7.430000 0.311515
7.439900 0.310983
7.449800 0.310429
7.459700 0.309822
7.469600 0.309108
7.479500 0.308229
7.489400 0.307127
7.499300 0.305746
7.509200 0.304084
7.519100 0.302243
7.529000 0.300407
7.538900 0.298753
7.548800 0.297380
7.558700 0.296296
7.568600 0.295455
7.578500 0.294798
7.588400 0.294283
7.598300 0.293889
7.608200 0.293592
7.618100 0.293333
7.628000 0.293018
7.637900 0.292546
7.647800 0.291849
7.657700 0.290919
7.667600 0.289808
7.677500 0.288597
7.687400 0.287371
7.697300 0.286216
7.707200 0.285197
7.717100 0.284348
7.727000 0.283660
7.736900 0.283085
7.746800 0.282549
7.756700 0.282001
7.766600 0.281432
7.776500 0.280873
7.786400 0.280362
7.796300 0.279943
7.806200 0.279657
7.816100 0.279517
7.826000 0.279476
7.835900 0.279431
7.845800 0.279291
7.855700 0.279021
7.865600 0.278640
7.875500 0.278175
7.885400 0.277653
7.895300 0.277111
7.905200 0.276611
7.915100 0.276222
7.925000 0.275994
7.934900 0.275950
7.944800 0.276092
7.954700 0.276420
7.964600 0.276920
7.974500 0.277563
7.984400 0.278303
7.994300 0.279098
8.004200 0.279922
8.014100 0.280779
8.024000 0.281683
8.033900 0.282633
8.043800 0.283595
8.053700 0.284514
8.063600 0.285345
8.073500 0.286087
8.083400 0.286779
8.093300 0.287461
8.103200 0.288136
8.113100 0.288758
8.123000 0.289269
8.132900 0.289621
8.142800 0.289811
8.152700 0.289886
8.162600 0.289922
8.172500 0.289989
8.182400 0.290121
8.192300 0.290307
8.202200 0.290496
8.212100 0.290631
8.222000 0.290696
8.231900 0.290734
8.241800 0.290813
8.251700 0.291012
8.261600 0.291404
8.271500 0.292034
8.281400 0.292900
8.291300 0.293960
8.301200 0.295146
8.311100 0.296383
8.321000 0.297611
8.330900 0.298802
8.340800 0.299952
8.350700 0.301059
8.360600 0.302111
8.370500 0.303088
8.380400 0.303959
8.390300 0.304685
8.400200 0.305253
8.410100 0.305700
8.420000 0.306114
8.429900 0.306614
8.439800 0.307312
8.449700 0.308289
8.459600 0.309556
8.469500 0.311045
8.479400 0.312630
8.489300 0.314184
8.499200 0.315629
8.509100 0.316958
8.519000 0.318243
8.528900 0.319590
8.538800 0.321087
8.548700 0.322758
8.558600 0.324556
8.568500 0.326395
8.578400 0.328159
8.588300 0.329713
8.598200 0.330903
8.608100 0.331593
8.618000 0.331697
8.627900 0.331217
8.637800 0.330253
8.647700 0.328990
8.657600 0.327652
8.667500 0.326432
8.677400 0.325454
8.687300 0.324771
8.697200 0.324369
8.707100 0.324163
8.717000 0.324028
8.726900 0.323819
8.736800 0.323389
8.746700 0.322619
8.756600 0.321460
8.766500 0.319944
8.776400 0.318140
8.786300 0.316099
8.796200 0.313864
8.806100 0.311515
8.816000 0.309158
8.825900 0.306878
8.835800 0.304704
8.845700 0.302610
8.855600 0.300548
8.865500 0.298478
8.875400 0.296379
8.885300 0.294250
8.895200 0.292112
8.905100 0.290013
8.915000 0.288000
8.924900 0.286097
8.934800 0.284313
8.944700 0.282654
8.954600 0.281103
8.964500 0.279604
8.974400 0.278089
8.984300 0.276523
8.994200 0.274922
9.004100 0.273359
9.014000 0.271935
9.023900 0.270745
9.033800 0.269858
9.043700 0.269339
9.053600 0.269246
9.063500 0.269593
9.073400 0.270287
9.083300 0.271144
9.093200 0.271966
9.103100 0.272659
9.113000 0.273258
9.122900 0.273876
9.132800 0.274618
9.142700 0.275537
9.152600 0.276619
9.162500 0.277760
9.172400 0.278742
9.182300 0.279232
9.192200 0.278883
9.202100 0.277528
9.212000 0.275278
9.221900 0.272426
9.231800 0.269278
9.241700 0.266077
9.251600 0.263006
9.261500 0.260185
9.271400 0.257662
9.281300 0.255399
9.291200 0.253307
9.301100 0.251302
9.311000 0.249380
9.320900 0.247612
9.330800 0.246087
9.340700 0.244853
9.350600 0.243889
9.360500 0.243106
9.370400 0.242397
9.380300 0.241725
9.390200 0.241146
9.400100 0.240738
9.410000 0.240517
9.419900 0.240414
9.429800 0.240278
9.439700 0.239924
9.449600 0.239193
9.459500 0.237973
9.469400 0.236186
9.479300 0.233821
9.489200 0.230979
9.499100 0.227876
9.509000 0.224750
9.518900 0.221783
9.528800 0.219071
9.538700 0.216639
9.548600 0.214470
9.558500 0.212519
9.568400 0.210735
9.578300 0.209058
9.588200 0.207437
9.598100 0.205851
9.608000 0.204307
9.617900 0.202802
9.627800 0.201312
9.637700 0.199811
9.647600 0.198304
9.657500 0.196821
9.667400 0.195390
9.677300 0.194025
9.687200 0.192719
9.697100 0.191445
9.707000 0.190159
9.716900 0.188806
9.726800 0.187357
9.736700 0.185823
9.746600 0.184249
9.756500 0.182695
9.766400 0.181203
9.776300 0.179795
9.786200 0.178483
9.796100 0.177279
9.806000 0.176194
9.815900 0.175230
9.825800 0.174384
9.835700 0.173654
9.845600 0.173029
9.855500 0.172469
9.865400 0.171911
9.875300 0.171291
9.885200 0.170571
9.895100 0.169748
9.905000 0.168846
9.914900 0.167897
9.924800 0.166926
9.934700 0.165949
9.944600 0.164963
9.954500 0.163934
9.964400 0.162822
9.974300 0.161617
9.984200 0.160365
9.994100 0.159134
10.004000 0.157978
10.013900 0.156923
10.023800 0.155975
10.033700 0.155126
10.043600 0.154360
10.053500 0.153654
10.063400 0.152995
10.073300 0.152381
10.083200 0.151820
10.093100 0.151311
10.103000 0.150846
10.112900 0.150417
10.122800 0.150014
10.132700 0.149616
10.142600 0.149187
10.152500 0.148683
10.162400 0.148074
10.172300 0.147355
10.182200 0.146544
10.192100 0.145673
10.202000 0.144769
10.211900 0.143860
10.221800 0.142971
10.231700 0.142122
10.241600 0.141318
10.251500 0.140552
10.261400 0.139808
10.271300 0.139073
10.281200 0.138337
10.291100 0.137595
10.301000 0.136850
10.310900 0.136108
10.320800 0.135373
10.330700 0.134651
10.340600 0.133960
10.350500 0.133327
10.360400 0.132776
10.370300 0.132312
10.380200 0.131920
10.390100 0.131565
10.400000 0.131209
10.409900 0.130812
10.419800 0.130346
10.429700 0.129805
10.439600 0.129200
10.449500 0.128543
10.459400 0.127838
10.469300 0.127082
10.479200 0.126263
10.489100 0.125379
10.499000 0.124433
10.508900 0.123429
10.518800 0.122384
10.528700 0.121326
10.538600 0.120287
10.548500 0.119297
10.558400 0.118379
10.568300 0.117552
10.578200 0.116828
10.588100 0.116204
10.598000 0.115664
10.607900 0.115183
10.617800 0.114733
10.627700 0.114292
10.637600 0.113838
10.647500 0.113355
10.657400 0.112842
10.667300 0.112317
10.677200 0.111799
10.687100 0.111299
10.697000 0.110821
10.706900 0.110357
10.716800 0.109890
10.726700 0.109390
10.736600 0.108816
10.746500 0.108108
10.756400 0.107205
10.766300 0.106078
10.776200 0.104761
10.786100 0.103341
10.796000 0.101902
10.805900 0.100494
10.815800 0.099135
10.825700 0.097818
10.835600 0.096534
10.845500 0.095278
10.855400 0.094057
10.865300 0.092888
10.875200 0.091778
10.885100 0.090721
10.895000 0.089700
10.904900 0.088699
10.914800 0.087713
10.924700 0.086750
10.934600 0.085821
10.944500 0.084925
10.954400 0.084049
10.964300 0.083177
10.974200 0.082302
10.984100 0.081434
10.994000 0.080585
11.003900 0.079772
11.013800 0.079001
11.023700 0.078270
11.033600 0.077559
11.043500 0.076838
11.053400 0.076076
11.063300 0.075258
11.073200 0.074382
11.083100 0.073469
11.093000 0.072552
11.102900 0.071661
11.112800 0.070806
11.122700 0.069968
11.132600 0.069119
11.142500 0.068249
11.152400 0.067363
11.162300 0.066477
11.172200 0.065603
11.182100 0.064747
11.192000 0.063912
11.201900 0.063100
11.211800 0.062311
11.221700 0.061544
11.231600 0.060806
11.241500 0.060101
11.251400 0.059428
11.261300 0.058775
11.271200 0.058126
11.281100 0.057466
11.291000 0.056780
11.300900 0.056070
11.310800 0.055351
11.320700 0.054642
11.330600 0.053958
11.340500 0.053304
11.350400 0.052676
11.360300 0.052062
11.370200 0.051456
11.380100 0.050854
11.390000 0.050259
11.399900 0.049680
11.409800 0.049128
11.419700 0.048611
11.429600 0.048136
11.439500 0.047699
11.449400 0.047287
11.459300 0.046882
11.469200 0.046464
11.479100 0.046019
11.489000 0.045547
11.498900 0.045063
11.508800 0.044578
11.518700 0.044100
11.528600 0.043623
11.538500 0.043141
11.548400 0.042652
11.558300 0.042159
11.568200 0.041670
11.578100 0.041187
11.588000 0.040716
11.597900 0.040255
11.607800 0.039802
11.617700 0.039352
11.627600 0.038895
11.637500 0.038429
11.647400 0.037958
11.657300 0.037494
11.667200 0.037051
11.677100 0.036635
11.687000 0.036246
11.696900 0.035882
11.706800 0.035536
11.716700 0.035199
11.726600 0.034865
11.736500 0.034535
11.746400 0.034210
11.756300 0.033888
11.766200 0.033571
11.776100 0.033257
11.786000 0.032952
11.795900 0.032659
11.805800 0.032380
11.815700 0.032110
11.825600 0.031845
11.835500 0.031583
11.845400 0.031326
11.855300 0.031072
11.865200 0.030820
11.875100 0.030567
11.885000 0.030312
11.894900 0.030055
11.904800 0.029795
11.914700 0.029535
11.924600 0.029280
11.934500 0.029030
11.944400 0.028783
11.954300 0.028530
11.964200 0.028264
11.974100 0.027985
11.984000 0.027698
11.993900 0.027411
12.003800 0.027129
12.013700 0.026852
12.023600 0.026576
12.033500 0.026299
12.043400 0.026020
12.053300 0.025744
12.063200 0.025484
12.073100 0.025254
12.083000 0.025065
12.092900 0.024919
12.102800 0.024811
12.112700 0.024728
12.122600 0.024652
12.132500 0.024563
12.142400 0.024441
12.152300 0.024280
12.162200 0.024086
12.172100 0.023878
12.182000 0.023673
12.191900 0.023477
12.201800 0.023286
12.211700 0.023091
12.221600 0.022882
12.231500 0.022659
12.241400 0.022428
12.251300 0.022200
12.261200 0.021981
12.271100 0.021777
12.281000 0.021584
12.290900 0.021403
12.300800 0.021232
12.310700 0.021071
12.320600 0.020917
12.330500 0.020761
12.340400 0.020601
12.350300 0.020437
12.360200 0.020275
12.370100 0.020120
12.380000 0.019973
12.389900 0.019832
12.399800 0.019694
12.409700 0.019561
12.419600 0.019439
12.429500 0.019330
12.439400 0.019232
12.449300 0.019142
12.459200 0.019055
12.469100 0.018967
12.479000 0.018879
12.488900 0.018793
12.498800 0.018711
12.508700 0.018635
12.518600 0.018564
12.528500 0.018496
12.538400 0.018425
12.548300 0.018340
12.558200 0.018235
12.568100 0.018107
12.578000 0.017958
12.587900 0.017797
12.597800 0.017629
12.607700 0.017457
12.617600 0.017282
12.627500 0.017103
12.637400 0.016920
12.647300 0.016735
12.657200 0.016548
12.667100 0.016357
12.677000 0.016161
12.686900 0.015959
12.696800 0.015752
12.706700 0.015543
12.716600 0.015332
12.726500 0.015122
12.736400 0.014914
12.746300 0.014715
12.756200 0.014527
12.766100 0.014351
12.776000 0.014182
12.785900 0.014013
12.795800 0.013840
12.805700 0.013667
12.815600 0.013498
12.825500 0.013340
12.835400 0.013193
12.845300 0.013058
12.855200 0.012932
12.865100 0.012811
12.875000 0.012694
12.884900 0.012579
12.894800 0.012465
12.904700 0.012350
12.914600 0.012233
12.924500 0.012116
12.934400 0.011999
12.944300 0.011885
12.954200 0.011775
12.964100 0.011671
12.974000 0.011572
12.983900 0.011476
12.993800 0.011383
13.003700 0.011291
13.013600 0.011201
13.023500 0.011115
13.033400 0.011032
13.043300 0.010951
13.053200 0.010872
13.063100 0.010791
13.073000 0.010706
13.082900 0.010615
13.092800 0.010519
13.102700 0.010415
13.112600 0.010306
13.122500 0.010196
13.132400 0.010088
13.142300 0.009985
13.152200 0.009888
13.162100 0.009794
13.172000 0.009701
13.181900 0.009608
13.191800 0.009515
13.201700 0.009421
13.211600 0.009327
13.221500 0.009232
13.231400 0.009134
13.241300 0.009034
13.251200 0.008932
13.261100 0.008830
13.271000 0.008730
13.280900 0.008635
13.290800 0.008545
13.300700 0.008460
13.310600 0.008380
13.320500 0.008303
13.330400 0.008225
13.340300 0.008147
13.350200 0.008066
13.360100 0.007986
13.370000 0.007904
13.379900 0.007823
13.389800 0.007744
13.399700 0.007669
13.409600 0.007601
13.419500 0.007539
13.429400 0.007484
13.439300 0.007432
13.449200 0.007384
13.459100 0.007336
13.469000 0.007288
13.478900 0.007239
13.488800 0.007189
13.498700 0.007139
13.508600 0.007088
13.518500 0.007037
13.528400 0.006985
13.538300 0.006930
13.548200 0.006870
13.558100 0.006804
13.568000 0.006733
13.577900 0.006659
13.587800 0.006585
13.597700 0.006513
13.607600 0.006442
13.617500 0.006373
13.627400 0.006308
13.637300 0.006247
13.647200 0.006189
13.657100 0.006135
13.667000 0.006084
13.676900 0.006034
13.686800 0.005985
13.696700 0.005935
13.706600 0.005885
13.716500 0.005835
13.726400 0.005787
13.736300 0.005740
13.746200 0.005696
13.756100 0.005655
13.766000 0.005616
13.775900 0.005577
13.785800 0.005538
13.795700 0.005499
13.805600 0.005460
13.815500 0.005422
13.825400 0.005385
13.835300 0.005350
13.845200 0.005318
13.855100 0.005289
13.865000 0.005263
13.874900 0.005238
13.884800 0.005216
13.894700 0.005196
13.904600 0.005177
13.914500 0.005158
13.924400 0.005137
13.934300 0.005110
13.944200 0.005079
13.954100 0.005044
13.964000 0.005006
13.973900 0.004968
13.983800 0.004933
13.993700 0.004901
14.003600 0.004871
14.013500 0.004842
14.023400 0.004813
14.033300 0.004784
14.043200 0.004753
14.053100 0.004719
14.063000 0.004681
14.072900 0.004640
14.082800 0.004595
14.092700 0.004549
14.102600 0.004503
14.112500 0.004459
14.122400 0.004417
14.132300 0.004377
14.142200 0.004338
14.152100 0.004300
14.162000 0.004261
14.171900 0.004222
14.181800 0.004183
14.191700 0.004143
14.201600 0.004102
14.211500 0.004062
14.221400 0.004023
14.231300 0.003984
14.241200 0.003946
14.251100 0.003910
14.261000 0.003876
14.270900 0.003844
14.280800 0.003814
14.290700 0.003786
14.300600 0.003760
14.310500 0.003736
14.320400 0.003715
14.330300 0.003695
14.340200 0.003675
14.350100 0.003653
14.360000 0.003629
14.369900 0.003602
14.379800 0.003571
14.389700 0.003539
14.399600 0.003506
14.409500 0.003474
14.419400 0.003444
14.429300 0.003415
14.439200 0.003388
14.449100 0.003361
14.459000 0.003335
14.468900 0.003309
14.478800 0.003282
14.488700 0.003256
14.498600 0.003230
14.508500 0.003206
14.518400 0.003182
14.528300 0.003160
14.538200 0.003140
14.548100 0.003121
14.558000 0.003102
14.567900 0.003081
14.577800 0.003059
14.587700 0.003034
14.597600 0.003007
14.607500 0.002978
14.617400 0.002948
14.627300 0.002917
14.637200 0.002887
14.647100 0.002856
14.657000 0.002827
14.666900 0.002798
14.676800 0.002770
14.686700 0.002744
14.696600 0.002720
14.706500 0.002698
14.716400 0.002677
14.726300 0.002658
14.736200 0.002640
14.746100 0.002621
14.756000 0.002602
14.765900 0.002583
14.775800 0.002563
14.785700 0.002543
14.795600 0.002523
14.805500 0.002502
14.815400 0.002481
14.825300 0.002459
14.835200 0.002437
14.845100 0.002415
14.855000 0.002393
14.864900 0.002371
14.874800 0.002350
14.884700 0.002331
14.894600 0.002312
14.904500 0.002295
14.914400 0.002278
14.924300 0.002262
14.934200 0.002248
14.944100 0.002234
14.954000 0.002220
14.963900 0.002208
14.973800 0.002195
14.983700 0.002183
14.993600 0.002171
15.003500 0.002159
15.013400 0.002147
15.023300 0.002136
15.033200 0.002124
15.043100 0.002112
15.053000 0.002100
15.062900 0.002086
15.072800 0.002073
15.082700 0.002060
15.092600 0.002047
15.102500 0.002034
15.112400 0.002021
15.122300 0.002010
15.132200 0.001998
15.142100 0.001987
15.152000 0.001976
15.161900 0.001965
15.171800 0.001954
15.181700 0.001943
15.191600 0.001932
15.201500 0.001920
15.211400 0.001908
15.221300 0.001896
15.231200 0.001884
15.241100 0.001871
15.251000 0.001859
15.260900 0.001846
15.270800 0.001834
15.280700 0.001822
15.290600 0.001811
15.300500 0.001799
15.310400 0.001789
15.320300 0.001779
15.330200 0.001770
15.340100 0.001761
15.350000 0.001753
15.359900 0.001744
15.369800 0.001736
15.379700 0.001727
15.389600 0.001719
15.399500 0.001710
15.409400 0.001702
15.419300 0.001693
15.429200 0.001685
15.439100 0.001677
15.449000 0.001669
15.458900 0.001661
15.468800 0.001654
15.478700 0.001647
15.488600 0.001640
15.498500 0.001633
15.508400 0.001627
15.518300 0.001620
15.528200 0.001613
15.538100 0.001606
15.548000 0.001599
15.557900 0.001592
15.567800 0.001585
15.577700 0.001577
15.587600 0.001570
15.597500 0.001562
15.607400 0.001555
15.617300 0.001548
15.627200 0.001541
15.637100 0.001534
15.647000 0.001527
15.656900 0.001520
15.666800 0.001514
15.676700 0.001508
15.686600 0.001503
15.696500 0.001497
15.706400 0.001492
15.716300 0.001487
15.726200 0.001482
15.736100 0.001476
15.746000 0.001470
15.755900 0.001464
15.765800 0.001458
15.775700 0.001452
15.785600 0.001446
15.795500 0.001440
15.805400 0.001434
15.815300 0.001428
15.825200 0.001422
15.835100 0.001416
15.845000 0.001410
15.854900 0.001404
15.864800 0.001398
15.874700 0.001393
15.884600 0.001387
15.894500 0.001382
15.904400 0.001376
15.914300 0.001371
15.924200 0.001366
15.934100 0.001360
15.944000 0.001355
15.953900 0.001350
15.963800 0.001345
15.973700 0.001340
15.983600 0.001335
15.993500 0.001330
16.003400 0.001326
16.013300 0.001322
16.023200 0.001317
16.033100 0.001313
16.043000 0.001308
16.052900 0.001304
16.062800 0.001299
16.072700 0.001294
16.082600 0.001290
16.092500 0.001285
16.102400 0.001280
16.112300 0.001276
16.122200 0.001271
16.132100 0.001267
16.142000 0.001263
16.151900 0.001259
16.161800 0.001255
16.171700 0.001251
16.181600 0.001247
16.191500 0.001243
16.201400 0.001239
16.211300 0.001235
16.221200 0.001231
16.231100 0.001227
16.241000 0.001223
16.250900 0.001220
16.260800 0.001216
16.270700 0.001212
16.280600 0.001208
16.290500 0.001205
16.300400 0.001201
16.310300 0.001198
16.320200 0.001195
16.330100 0.001191
16.340000 0.001188
16.349900 0.001185
16.359800 0.001182
16.369700 0.001179
16.379600 0.001175
16.389500 0.001172
16.399400 0.001169
16.409300 0.001166
16.419200 0.001163
16.429100 0.001160
16.439000 0.001157
16.448900 0.001155
16.458800 0.001152
16.468700 0.001149
16.478600 0.001146
16.488500 0.001143
16.498400 0.001141
16.508300 0.001138
16.518200 0.001135
16.528100 0.001133
16.538000 0.001130
16.547900 0.001128
16.557800 0.001125
16.567700 0.001122
16.577600 0.001120
16.587500 0.001117
16.597400 0.001114
16.607300 0.001111
16.617200 0.001109
16.627100 0.001106
16.637000 0.001103
16.646900 0.001101
16.656800 0.001098
16.666700 0.001095
16.676600 0.001093
16.686500 0.001090
16.696400 0.001088
16.706300 0.001086
16.716200 0.001083
16.726100 0.001081
16.736000 0.001078
16.745900 0.001076
16.755800 0.001074
16.765700 0.001071
16.775600 0.001069
16.785500 0.001067
16.795400 0.001064
16.805300 0.001062
16.815200 0.001059
16.825100 0.001057
16.835000 0.001055
16.844900 0.001052
16.854800 0.001050
16.864700 0.001048
16.874600 0.001046
16.884500 0.001044
16.894400 0.001042
16.904300 0.001039
16.914200 0.001037
16.924100 0.001035
16.934000 0.001033
16.943900 0.001031
16.953800 0.001029
16.963700 0.001027
16.973600 0.001025
16.983500 0.001023
16.993400 0.001020
17.003300 0.001018
17.013200 0.001016
17.023100 0.001014
17.033000 0.001012
17.042900 0.001009
17.052800 0.001007
17.062700 0.001005
17.072600 0.001003
17.082500 0.001001
17.092400 0.000999
17.102300 0.000998
17.112200 0.000996
17.122100 0.000994
17.132000 0.000992
17.141900 0.000991
17.151800 0.000989
17.161700 0.000987
17.171600 0.000985
17.181500 0.000984
17.191400 0.000982
17.201300 0.000980
17.211200 0.000978
17.221100 0.000976
17.231000 0.000974
17.240900 0.000973
17.250800 0.000971
17.260700 0.000969
17.270600 0.000967
17.280500 0.000965
17.290400 0.000963
17.300300 0.000961
17.310200 0.000959
17.320100 0.000957
17.330000 0.000955
17.339900 0.000953
17.349800 0.000952
17.359700 0.000950
17.369600 0.000948
17.379500 0.000946
17.389400 0.000945
17.399300 0.000943
17.409200 0.000941
17.419100 0.000939
17.429000 0.000938
17.438900 0.000936
17.448800 0.000934
17.458700 0.000932
17.468600 0.000931
17.478500 0.000929
17.488400 0.000927
17.498300 0.000926
17.508200 0.000924
17.518100 0.000923
17.528000 0.000921
17.537900 0.000919
17.547800 0.000918
17.557700 0.000916
17.567600 0.000914
17.577500 0.000913
17.587400 0.000911
17.597300 0.000910
17.607200 0.000908
17.617100 0.000907
17.627000 0.000905
17.636900 0.000904
17.646800 0.000902
17.656700 0.000900
17.666600 0.000899
17.676500 0.000897
17.686400 0.000895
17.696300 0.000894
17.706200 0.000892
17.716100 0.000891
17.726000 0.000889
17.735900 0.000887
17.745800 0.000886
17.755700 0.000884
17.765600 0.000883
17.775500 0.000881
17.785400 0.000880
17.795300 0.000878
17.805200 0.000877
17.815100 0.000875
17.825000 0.000873
17.834900 0.000872
17.844800 0.000870
17.854700 0.000869
17.864600 0.000867
17.874500 0.000866
17.884400 0.000864
17.894300 0.000863
17.904200 0.000861
17.914100 0.000860
17.924000 0.000859
17.933900 0.000857
17.943800 0.000856
17.953700 0.000854
17.963600 0.000853
17.973500 0.000852
17.983400 0.000850
17.993300 0.000849
18.003200 0.000847
18.013100 0.000846
18.023000 0.000844
18.032900 0.000843
18.042800 0.000842
18.052700 0.000840
18.062600 0.000839
18.072500 0.000837
18.082400 0.000836
18.092300 0.000835
18.102200 0.000833
18.112100 0.000832
18.122000 0.000831
18.131900 0.000829
18.141800 0.000828
18.151700 0.000826
18.161600 0.000825
18.171500 0.000824
18.181400 0.000823
18.191300 0.000821
18.201200 0.000820
18.211100 0.000819
18.221000 0.000817
18.230900 0.000816
18.240800 0.000815
18.250700 0.000813
18.260600 0.000812
18.270500 0.000811
18.280400 0.000810
18.290300 0.000808
18.300200 0.000807
18.310100 0.000806
18.320000 0.000805
18.329900 0.000803
18.339800 0.000802
18.349700 0.000801
18.359600 0.000800
18.369500 0.000798
18.379400 0.000797
18.389300 0.000796
18.399200 0.000795
18.409100 0.000794
18.419000 0.000792
18.428900 0.000791
18.438800 0.000790
18.448700 0.000789
18.458600 0.000788
18.468500 0.000786
18.478400 0.000785
18.488300 0.000784
18.498200 0.000783
18.508100 0.000782
18.518000 0.000781
18.527900 0.000779
18.537800 0.000778
18.547700 0.000777
18.557600 0.000776
18.567500 0.000775
18.577400 0.000774
18.587300 0.000772
18.597200 0.000771
18.607100 0.000770
18.617000 0.000769
18.626900 0.000768
18.636800 0.000767
18.646700 0.000766
18.656600 0.000765
18.666500 0.000764
18.676400 0.000763
18.686300 0.000761
18.696200 0.000760
18.706100 0.000759
18.716000 0.000758
18.725900 0.000757
18.735800 0.000756
18.745700 0.000755
18.755600 0.000754
18.765500 0.000753
18.775400 0.000752
18.785300 0.000751
18.795200 0.000750
18.805100 0.000748
18.815000 0.000747
18.824900 0.000746
18.834800 0.000745
18.844700 0.000744
18.854600 0.000743
18.864500 0.000742
18.874400 0.000741
18.884300 0.000740
18.894200 0.000739
18.904100 0.000738
18.914000 0.000737
18.923900 0.000736
18.933800 0.000735
18.943700 0.000734
18.953600 0.000733
18.963500 0.000732
18.973400 0.000731
18.983300 0.000730
18.993200 0.000729
19.003100 0.000728
19.013000 0.000727
19.022900 0.000726
19.032800 0.000725
19.042700 0.000724
19.052600 0.000723
19.062500 0.000722
19.072400 0.000721
19.082300 0.000720
19.092200 0.000719
19.102100 0.000718
19.112000 0.000717
19.121900 0.000716
19.131800 0.000715
19.141700 0.000714
19.151600 0.000713
19.161500 0.000712
19.171400 0.000711
19.181300 0.000710
19.191200 0.000709
19.201100 0.000708
19.211000 0.000707
19.220900 0.000706
19.230800 0.000705
19.240700 0.000704
19.250600 0.000703
19.260500 0.000702
19.270400 0.000701
19.280300 0.000700
19.290200 0.000699
19.300100 0.000698
19.310000 0.000697
19.319900 0.000696
19.329800 0.000695
19.339700 0.000695
19.349600 0.000694
19.359500 0.000693
19.369400 0.000692
19.379300 0.000691
19.389200 0.000690
19.399100 0.000689
19.409000 0.000688
19.418900 0.000687
19.428800 0.000686
19.438700 0.000685
19.448600 0.000684
19.458500 0.000684
19.468400 0.000683
19.478300 0.000682
19.488200 0.000681
19.498100 0.000680
19.508000 0.000679
19.517900 0.000678
19.527800 0.000677
19.537700 0.000676
19.547600 0.000675
19.557500 0.000675
19.567400 0.000674
19.577300 0.000673
19.587200 0.000672
19.597100 0.000671
19.607000 0.000670
19.616900 0.000669
19.626800 0.000668
19.636700 0.000668
19.646600 0.000667
19.656500 0.000666
19.666400 0.000665
19.676300 0.000664
19.686200 0.000663
19.696100 0.000662
19.706000 0.000661
19.715900 0.000661
19.725800 0.000660
19.735700 0.000659
19.745600 0.000658
19.755500 0.000657
19.765400 0.000656
19.775300 0.000655
19.785200 0.000655
19.795100 0.000654
19.805000 0.000653
19.814900 0.000652
19.824800 0.000651
19.834700 0.000650
19.844600 0.000650
19.854500 0.000649
19.864400 0.000648
19.874300 0.000647
19.884200 0.000646
19.894100 0.000645
19.904000 0.000645
19.913900 0.000644
19.923800 0.000643
19.933700 0.000642
19.943600 0.000641
19.953500 0.000641
19.963400 0.000640
19.973300 0.000639
19.983200 0.000638
19.993100 0.000637
20.003000 0.000636
20.012900 0.000636
20.022800 0.000635
20.032700 0.000634
20.042600 0.000633
20.052500 0.000633
20.062400 0.000632
20.072300 0.000631
20.082200 0.000630
20.092100 0.000629
20.102000 0.000629
20.111900 0.000628
20.121800 0.000627
20.131700 0.000626
20.141600 0.000625
20.151500 0.000625
20.161400 0.000624
20.171300 0.000623
20.181200 0.000622
20.191100 0.000622
20.201000 0.000621
20.210900 0.000620
20.220800 0.000619
20.230700 0.000619
20.240600 0.000618
20.250500 0.000617
20.260400 0.000616
20.270300 0.000615
20.280200 0.000615
20.290100 0.000614
20.300000 0.000613
20.309900 0.000612
20.319800 0.000612
20.329700 0.000611
20.339600 0.000610
20.349500 0.000609
20.359400 0.000609
20.369300 0.000608
20.379200 0.000607
20.389100 0.000606
20.399000 0.000606
20.408900 0.000605
20.418800 0.000604
20.428700 0.000604
20.438600 0.000603
20.448500 0.000602
20.458400 0.000601
20.468300 0.000601
20.478200 0.000600
20.488100 0.000599
20.498000 0.000598
20.507900 0.000598
20.517800 0.000597
20.527700 0.000596
20.537600 0.000596
20.547500 0.000595
20.557400 0.000594
20.567300 0.000593
20.577200 0.000593
20.587100 0.000592
20.597000 0.000591
20.606900 0.000591
20.616800 0.000590
20.626700 0.000589
20.636600 0.000588
20.646500 0.000588
20.656400 0.000587
20.666300 0.000586
20.676200 0.000586
20.686100 0.000585
20.696000 0.000584
20.705900 0.000584
20.715800 0.000583
20.725700 0.000582
20.735600 0.000582
20.745500 0.000581
20.755400 0.000580
20.765300 0.000579
20.775200 0.000579
20.785100 0.000578
20.795000 0.000577
20.804900 0.000577
20.814800 0.000576
20.824700 0.000575
20.834600 0.000575
20.844500 0.000574
20.854400 0.000573
20.864300 0.000573
20.874200 0.000572
20.884100 0.000571
20.894000 0.000571
20.903900 0.000570
20.913800 0.000569
20.923700 0.000569
20.933600 0.000568
20.943500 0.000567
20.953400 0.000567
20.963300 0.000566
20.973200 0.000565
20.983100 0.000565
20.993000 0.000564
21.002900 0.000563
21.012800 0.000563
21.022700 0.000562
21.032600 0.000561
21.042500 0.000561
21.052400 0.000560
21.062300 0.000560
21.072200 0.000559
21.082100 0.000558
21.092000 0.000558
21.101900 0.000557
21.111800 0.000556
21.121700 0.000556
21.131600 0.000555
21.141500 0.000554
21.151400 0.000554
21.161300 0.000553
21.171200 0.000553
21.181100 0.000552
21.191000 0.000551
21.200900 0.000551
21.210800 0.000550
21.220700 0.000549
21.230600 0.000549
21.240500 0.000548
21.250400 0.000548
21.260300 0.000547
21.270200 0.000546
21.280100 0.000546
21.290000 0.000545
21.299900 0.000544
21.309800 0.000544
21.319700 0.000543
21.329600 0.000543
21.339500 0.000542
21.349400 0.000541
21.359300 0.000541
21.369200 0.000540
21.379100 0.000540
21.389000 0.000539
21.398900 0.000538
21.408800 0.000538
21.418700 0.000537
21.428600 0.000536
21.438500 0.000536
21.448400 0.000535
21.458300 0.000535
21.468200 0.000534
21.478100 0.000533
21.488000 0.000533
21.497900 0.000532
21.507800 0.000532
21.517700 0.000531
21.527600 0.000531
21.537500 0.000530
21.547400 0.000529
21.557300 0.000529
21.567200 0.000528
21.577100 0.000528
21.587000 0.000527
21.596900 0.000526
21.606800 0.000526
21.616700 0.000525
21.626600 0.000525
21.636500 0.000524
21.646400 0.000524
21.656300 0.000523
21.666200 0.000522
21.676100 0.000522
21.686000 0.000521
21.695900 0.000521
21.705800 0.000520
21.715700 0.000519
21.725600 0.000519
21.735500 0.000518
21.745400 0.000518
21.755300 0.000517
21.765200 0.000517
21.775100 0.000516
21.785000 0.000516
21.794900 0.000515
21.804800 0.000514
21.814700 0.000514
21.824600 0.000513
21.834500 0.000513
21.844400 0.000512
21.854300 0.000512
21.864200 0.000511
21.874100 0.000510
21.884000 0.000510
21.893900 0.000509
21.903800 0.000509
21.913700 0.000508
21.923600 0.000508
21.933500 0.000507
21.943400 0.000507
21.953300 0.000506
21.963200 0.000506
21.973100 0.000505
21.983000 0.000504
21.992900 0.000504
22.002800 0.000503
22.012700 0.000503
22.022600 0.000502
22.032500 0.000502
22.042400 0.000501
22.052300 0.000501
22.062200 0.000500
22.072100 0.000500
22.082000 0.000499
22.091900 0.000498
22.101800 0.000498
22.111700 0.000497
22.121600 0.000497
22.131500 0.000496
22.141400 0.000496
22.151300 0.000495
22.161200 0.000495
22.171100 0.000494
22.181000 0.000494
22.190900 0.000493
22.200800 0.000493
22.210700 0.000492
22.220600 0.000492
22.230500 0.000491
22.240400 0.000491
22.250300 0.000490
22.260200 0.000490
22.270100 0.000489
22.280000 0.000488
22.289900 0.000488
22.299800 0.000487
22.309700 0.000487
22.319600 0.000486
22.329500 0.000486
22.339400 0.000485
22.349300 0.000485
22.359200 0.000484
22.369100 0.000484
22.379000 0.000483
22.388900 0.000483
22.398800 0.000482
22.408700 0.000482
22.418600 0.000481
22.428500 0.000481
22.438400 0.000480
22.448300 0.000480
22.458200 0.000479
22.468100 0.000479
22.478000 0.000478
22.487900 0.000478
22.497800 0.000477
22.507700 0.000477
22.517600 0.000476
22.527500 0.000476
22.537400 0.000475
22.547300 0.000475
22.557200 0.000474
22.567100 0.000474
22.577000 0.000473
22.586900 0.000473
22.596800 0.000472
22.606700 0.000472
22.616600 0.000471
22.626500 0.000471
22.636400 0.000470
22.646300 0.000470
22.656200 0.000469
22.666100 0.000469
22.676000 0.000468
22.685900 0.000468
22.695800 0.000468
22.705700 0.000467
22.715600 0.000467
22.725500 0.000466
22.735400 0.000466
22.745300 0.000465
22.755200 0.000465
22.765100 0.000464
22.775000 0.000464
22.784900 0.000463
22.794800 0.000463
22.804700 0.000462
22.814600 0.000462
22.824500 0.000461
22.834400 0.000461
22.844300 0.000460
22.854200 0.000460
22.864100 0.000459
22.874000 0.000459
22.883900 0.000458
22.893800 0.000458
22.903700 0.000458
22.913600 0.000457
22.923500 0.000457
22.933400 0.000456
22.943300 0.000456
22.953200 0.000455
22.963100 0.000455
22.973000 0.000454
22.982900 0.000454
22.992800 0.000453
23.002700 0.000453
23.012600 0.000452
23.022500 0.000452
23.032400 0.000452
23.042300 0.000451
23.052200 0.000451
23.062100 0.000450
23.072000 0.000450
23.081900 0.000449
23.091800 0.000449
23.101700 0.000448
23.111600 0.000448
23.121500 0.000447
23.131400 0.000447
23.141300 0.000447
23.151200 0.000446
23.161100 0.000446
23.171000 0.000445
23.180900 0.000445
23.190800 0.000444
23.200700 0.000444
23.210600 0.000443
23.220500 0.000443
23.230400 0.000443
23.240300 0.000442
23.250200 0.000442
23.260100 0.000441
23.270000 0.000441
23.279900 0.000440
23.289800 0.000440
23.299700 0.000440
23.309600 0.000439
23.319500 0.000439
23.329400 0.000438
23.339300 0.000438
23.349200 0.000437
23.359100 0.000437
23.369000 0.000436
23.378900 0.000436
23.388800 0.000436
23.398700 0.000435
23.408600 0.000435
23.418500 0.000434
23.428400 0.000434
23.438300 0.000433
23.448200 0.000433
23.458100 0.000433
23.468000 0.000432
23.477900 0.000432
23.487800 0.000431
23.497700 0.000431
23.507600 0.000431
23.517500 0.000430
23.527400 0.000430
23.537300 0.000429
23.547200 0.000429
23.557100 0.000428
23.567000 0.000428
23.576900 0.000428
23.586800 0.000427
23.596700 0.000427
23.606600 0.000426
23.616500 0.000426
23.626400 0.000425
23.636300 0.000425
23.646200 0.000425
23.656100 0.000424
23.666000 0.000424
23.675900 0.000423
23.685800 0.000423
23.695700 0.000423
23.705600 0.000422
23.715500 0.000422
23.725400 0.000421
23.735300 0.000421
23.745200 0.000421
23.755100 0.000420
23.765000 0.000420
23.774900 0.000419
23.784800 0.000419
23.794700 0.000419
23.804600 0.000418
23.814500 0.000418
23.824400 0.000417
23.834300 0.000417
23.844200 0.000417
23.854100 0.000416
23.864000 0.000416
23.873900 0.000415
23.883800 0.000415
23.893700 0.000415
23.903600 0.000414
23.913500 0.000414
23.923400 0.000413
23.933300 0.000413
23.943200 0.000413
23.953100 0.000412
23.963000 0.000412
23.972900 0.000411
23.982800 0.000411
23.992700 0.000411
24.002600 0.000410
24.012500 0.000410
24.022400 0.000409
24.032300 0.000409
24.042200 0.000409
24.052100 0.000408
24.062000 0.000408
24.071900 0.000407
24.081800 0.000407
24.091700 0.000407
24.101600 0.000406
24.111500 0.000406
24.121400 0.000406
24.131300 0.000405
24.141200 0.000405
24.151100 0.000404
24.161000 0.000404
24.170900 0.000404
24.180800 0.000403
24.190700 0.000403
24.200600 0.000402
24.210500 0.000402
24.220400 0.000402
24.230300 0.000401
24.240200 0.000401
24.250100 0.000401
24.260000 0.000400
24.269900 0.000400
24.279800 0.000399
24.289700 0.000399
24.299600 0.000399
24.309500 0.000398
24.319400 0.000398
24.329300 0.000398
24.339200 0.000397
24.349100 0.000397
24.359000 0.000396
24.368900 0.000396
24.378800 0.000396
24.388700 0.000395
24.398600 0.000395
24.408500 0.000395
24.418400 0.000394
24.428300 0.000394
24.438200 0.000394
24.448100 0.000393
24.458000 0.000393
24.467900 0.000392
24.477800 0.000392
24.487700 0.000392
24.497600 0.000391
24.507500 0.000391
24.517400 0.000391
24.527300 0.000390
24.537200 0.000390
24.547100 0.000390
24.557000 0.000389
24.566900 0.000389
24.576800 0.000388
24.586700 0.000388
24.596600 0.000388
24.606500 0.000387
24.616400 0.000387
24.626300 0.000387
24.636200 0.000386
24.646100 0.000386
24.656000 0.000386
24.665900 0.000385
24.675800 0.000385
24.685700 0.000385
24.695600 0.000384
24.705500 0.000384
24.715400 0.000383
24.725300 0.000383
24.735200 0.000383
24.745100 0.000382
24.755000 0.000382
24.764900 0.000382
24.774800 0.000381
24.784700 0.000381
24.794600 0.000381
24.804500 0.000380
24.814400 0.000380
24.824300 0.000380
24.834200 0.000379
24.844100 0.000379
24.854000 0.000379
24.863900 0.000378
24.873800 0.000378
24.883700 0.000378
24.893600 0.000377
24.903500 0.000377
24.913400 0.000377
24.923300 0.000376
24.933200 0.000376
24.943100 0.000376
24.953000 0.000375
24.962900 0.000375
24.972800 0.000374
24.982700 0.000374
24.992600 0.000374
25.002500 0.000373
25.012400 0.000373
25.022300 0.000373
25.032200 0.000372
25.042100 0.000372
25.052000 0.000372
25.061900 0.000371
25.071800 0.000371
25.081700 0.000371
25.091600 0.000370
25.101500 0.000370
25.111400 0.000370
25.121300 0.000369
25.131200 0.000369
25.141100 0.000369
25.151000 0.000368
25.160900 0.000368
25.170800 0.000368
25.180700 0.000367
25.190600 0.000367
25.200500 0.000367
25.210400 0.000366
25.220300 0.000366
25.230200 0.000366
25.240100 0.000366
25.250000 0.000365
25.259900 0.000365
25.269800 0.000365
25.279700 0.000364
25.289600 0.000364
25.299500 0.000364
25.309400 0.000363
25.319300 0.000363
25.329200 0.000363
25.339100 0.000362
25.349000 0.000362
25.358900 0.000362
25.368800 0.000361
25.378700 0.000361
25.388600 0.000361
25.398500 0.000360
25.408400 0.000360
25.418300 0.000360
25.428200 0.000359
25.438100 0.000359
25.448000 0.000359
25.457900 0.000358
25.467800 0.000358
25.477700 0.000358
25.487600 0.000358
25.497500 0.000357
25.507400 0.000357
25.517300 0.000357
25.527200 0.000356
25.537100 0.000356
25.547000 0.000356
25.556900 0.000355
25.566800 0.000355
25.576700 0.000355
25.586600 0.000354
25.596500 0.000354
25.606400 0.000354
25.616300 0.000353
25.626200 0.000353
25.636100 0.000353
25.646000 0.000353
25.655900 0.000352
25.665800 0.000352
25.675700 0.000352
25.685600 0.000351
25.695500 0.000351
25.705400 0.000351
25.715300 0.000350
25.725200 0.000350
25.735100 0.000350
25.745000 0.000349
25.754900 0.000349
25.764800 0.000349
25.774700 0.000349
25.784600 0.000348
25.794500 0.000348
25.804400 0.000348
25.814300 0.000347
25.824200 0.000347
25.834100 0.000347
25.844000 0.000346
25.853900 0.000346
25.863800 0.000346
25.873700 0.000346
25.883600 0.000345
25.893500 0.000345
25.903400 0.000345
25.913300 0.000344
25.923200 0.000344
25.933100 0.000344
25.943000 0.000343
25.952900 0.000343
25.962800 0.000343
25.972700 0.000343
25.982600 0.000342
25.992500 0.000342
26.002400 0.000342
26.012300 0.000341
26.022200 0.000341
26.032100 0.000341
26.042000 0.000341
26.051900 0.000340
26.061800 0.000340
26.071700 0.000340
26.081600 0.000339
26.091500 0.000339
26.101400 0.000339
26.111300 0.000338
26.121200 0.000338
26.131100 0.000338
26.141000 0.000338
26.150900 0.000337
26.160800 0.000337
26.170700 0.000337
26.180600 0.000336
26.190500 0.000336
26.200400 0.000336
26.210300 0.000336
26.220200 0.000335
26.230100 0.000335
26.240000 0.000335
26.249900 0.000334
26.259800 0.000334
26.269700 0.000334
26.279600 0.000334
26.289500 0.000333
26.299400 0.000333
26.309300 0.000333
26.319200 0.000333
26.329100 0.000332
26.339000 0.000332
26.348900 0.000332
26.358800 0.000331
26.368700 0.000331
26.378600 0.000331
26.388500 0.000331
26.398400 0.000330
26.408300 0.000330
26.418200 0.000330
26.428100 0.000329
26.438000 0.000329
26.447900 0.000329
26.457800 0.000329
26.467700 0.000328
26.477600 0.000328
26.487500 0.000328
26.497400 0.000328
26.507300 0.000327
26.517200 0.000327
26.527100 0.000327
26.537000 0.000326
26.546900 0.000326
26.556800 0.000326
26.566700 0.000326
26.576600 0.000325
26.586500 0.000325
26.596400 0.000325
26.606300 0.000325
26.616200 0.000324
26.626100 0.000324
26.636000 0.000324
26.645900 0.000323
26.655800 0.000323
26.665700 0.000323
26.675600 0.000323
26.685500 0.000322
26.695400 0.000322
26.705300 0.000322
26.715200 0.000322
26.725100 0.000321
26.735000 0.000321
26.744900 0.000321
26.754800 0.000320
26.764700 0.000320
26.774600 0.000320
26.784500 0.000320
26.794400 0.000319
26.804300 0.000319
26.814200 0.000319
26.824100 0.000319
26.834000 0.000318
26.843900 0.000318
26.853800 0.000318
26.863700 0.000318
26.873600 0.000317
26.883500 0.000317
26.893400 0.000317
26.903300 0.000317
26.913200 0.000316
26.923100 0.000316
26.933000 0.000316
26.942900 0.000316
26.952800 0.000315
26.962700 0.000315
26.972600 0.000315
26.982500 0.000314
26.992400 0.000314
27.002300 0.000314
27.012200 0.000314
27.022100 0.000313
27.032000 0.000313
27.041900 0.000313
27.051800 0.000313
27.061700 0.000312
27.071600 0.000312
27.081500 0.000312
27.091400 0.000312
27.101300 0.000311
27.111200 0.000311
27.121100 0.000311
27.131000 0.000311
27.140900 0.000310
27.150800 0.000310
27.160700 0.000310
27.170600 0.000310
27.180500 0.000309
27.190400 0.000309
27.200300 0.000309
27.210200 0.000309
27.220100 0.000308
27.230000 0.000308
27.239900 0.000308
27.249800 0.000308
27.259700 0.000307
27.269600 0.000307
27.279500 0.000307
27.289400 0.000307
27.299300 0.000306
27.309200 0.000306
27.319100 0.000306
27.329000 0.000306
27.338900 0.000305
27.348800 0.000305
27.358700 0.000305
27.368600 0.000305
27.378500 0.000304
27.388400 0.000304
27.398300 0.000304
27.408200 0.000304
27.418100 0.000303
27.428000 0.000303
27.437900 0.000303
27.447800 0.000303
27.457700 0.000302
27.467600 0.000302
27.477500 0.000302
27.487400 0.000302
27.497300 0.000302
27.507200 0.000301
27.517100 0.000301
27.527000 0.000301
27.536900 0.000301
27.546800 0.000300
27.556700 0.000300
27.566600 0.000300
27.576500 0.000300
27.586400 0.000299
27.596300 0.000299
27.606200 0.000299
27.616100 0.000299
27.626000 0.000298
27.635900 0.000298
27.645800 0.000298
27.655700 0.000298
27.665600 0.000297
27.675500 0.000297
27.685400 0.000297
27.695300 0.000297
27.705200 0.000297
27.715100 0.000296
27.725000 0.000296
27.734900 0.000296
27.744800 0.000296
27.754700 0.000295
27.764600 0.000295
27.774500 0.000295
27.784400 0.000295
27.794300 0.000294
27.804200 0.000294
27.814100 0.000294
27.824000 0.000294
27.833900 0.000293
27.843800 0.000293
27.853700 0.000293
27.863600 0.000293
27.873500 0.000293
27.883400 0.000292
27.893300 0.000292
27.903200 0.000292
27.913100 0.000292
27.923000 0.000291
27.932900 0.000291
27.942800 0.000291
27.952700 0.000291
27.962600 0.000291
27.972500 0.000290
27.982400 0.000290
27.992300 0.000290
28.002200 0.000290
28.012100 0.000289
28.022000 0.000289
28.031900 0.000289
28.041800 0.000289
28.051700 0.000288
28.061600 0.000288
28.071500 0.000288
28.081400 0.000288
28.091300 0.000288
28.101200 0.000287
28.111100 0.000287
28.121000 0.000287
28.130900 0.000287
28.140800 0.000286
28.150700 0.000286
28.160600 0.000286
28.170500 0.000286
28.180400 0.000286
28.190300 0.000285
28.200200 0.000285
28.210100 0.000285
28.220000 0.000285
28.229900 0.000284
28.239800 0.000284
28.249700 0.000284
28.259600 0.000284
28.269500 0.000284
28.279400 0.000283
28.289300 0.000283
28.299200 0.000283
28.309100 0.000283
28.319000 0.000282
28.328900 0.000282
28.338800 0.000282
28.348700 0.000282
28.358600 0.000282
28.368500 0.000281
28.378400 0.000281
28.388300 0.000281
28.398200 0.000281
28.408100 0.000281
28.418000 0.000280
28.427900 0.000280
28.437800 0.000280
28.447700 0.000280
28.457600 0.000279
28.467500 0.000279
28.477400 0.000279
28.487300 0.000279
28.497200 0.000279
28.507100 0.000278
28.517000 0.000278
28.526900 0.000278
28.536800 0.000278
28.546700 0.000278
28.556600 0.000277
28.566500 0.000277
28.576400 0.000277
28.586300 0.000277
28.596200 0.000276
28.606100 0.000276
28.616000 0.000276
28.625900 0.000276
28.635800 0.000276
28.645700 0.000275
28.655600 0.000275
28.665500 0.000275
28.675400 0.000275
28.685300 0.000275
28.695200 0.000274
28.705100 0.000274
28.715000 0.000274
28.724900 0.000274
28.734800 0.000274
28.744700 0.000273
28.754600 0.000273
28.764500 0.000273
28.774400 0.000273
28.784300 0.000273
28.794200 0.000272
28.804100 0.000272
28.814000 0.000272
28.823900 0.000272
28.833800 0.000272
28.843700 0.000271
28.853600 0.000271
28.863500 0.000271
28.873400 0.000271
28.883300 0.000270
28.893200 0.000270
28.903100 0.000270
28.913000 0.000270
28.922900 0.000270
28.932800 0.000269
28.942700 0.000269
28.952600 0.000269
28.962500 0.000269
28.972400 0.000269
28.982300 0.000268
28.992200 0.000268
29.002100 0.000268
29.012000 0.000268
29.021900 0.000268
29.031800 0.000267
29.041700 0.000267
29.051600 0.000267
29.061500 0.000267
29.071400 0.000267
29.081300 0.000266
29.091200 0.000266
29.101100 0.000266
29.111000 0.000266
29.120900 0.000266
29.130800 0.000265
29.140700 0.000265
29.150600 0.000265
29.160500 0.000265
29.170400 0.000265
29.180300 0.000264
29.190200 0.000264
29.200100 0.000264
29.210000 0.000264
29.219900 0.000264
29.229800 0.000264
29.239700 0.000263
29.249600 0.000263
29.259500 0.000263
29.269400 0.000263
29.279300 0.000263
29.289200 0.000262
29.299100 0.000262
29.309000 0.000262
29.318900 0.000262
29.328800 0.000262
29.338700 0.000261
29.348600 0.000261
29.358500 0.000261
29.368400 0.000261
29.378300 0.000261
29.388200 0.000260
29.398100 0.000260
29.408000 0.000260
29.417900 0.000260
29.427800 0.000260
29.437700 0.000259
29.447600 0.000259
29.457500 0.000259
29.467400 0.000259
29.477300 0.000259
29.487200 0.000258
29.497100 0.000258
29.507000 0.000258
29.516900 0.000258
29.526800 0.000258
29.536700 0.000258
29.546600 0.000257
29.556500 0.000257
29.566400 0.000257
29.576300 0.000257
29.586200 0.000257
29.596100 0.000256
29.606000 0.000256
29.615900 0.000256
29.625800 0.000256
29.635700 0.000256
29.645600 0.000255
29.655500 0.000255
29.665400 0.000255
29.675300 0.000255
29.685200 0.000255
29.695100 0.000255
29.705000 0.000254
29.714900 0.000254
29.724800 0.000254
29.734700 0.000254
29.744600 0.000254
29.754500 0.000253
29.764400 0.000253
29.774300 0.000253
29.784200 0.000253
29.794100 0.000253
29.804000 0.000253
29.813900 0.000252
29.823800 0.000252
29.833700 0.000252
29.843600 0.000252
29.853500 0.000252
29.863400 0.000251
29.873300 0.000251
29.883200 0.000251
29.893100 0.000251
29.903000 0.000251
29.912900 0.000251
29.922800 0.000250
29.932700 0.000250
29.942600 0.000250
29.952500 0.000250
29.962400 0.000250
29.972300 0.000249
29.982200 0.000249
29.992100 0.000249
30.002000 0.000249
30.011900 0.000249
30.021800 0.000249
30.031700 0.000248
30.041600 0.000248
30.051500 0.000248
30.061400 0.000248
30.071300 0.000248
30.081200 0.000247
30.091100 0.000247
30.101000 0.000247
30.110900 0.000247
30.120800 0.000247
30.130700 0.000247
30.140600 0.000246
30.150500 0.000246
30.160400 0.000246
30.170300 0.000246
30.180200 0.000246
30.190100 0.000246
30.200000 0.000245
30.209900 0.000245
30.219800 0.000245
30.229700 0.000245
30.239600 0.000245
30.249500 0.000244
30.259400 0.000244
30.269300 0.000244
30.279200 0.000244
30.289100 0.000244
30.299000 0.000244
30.308900 0.000243
30.318800 0.000243
30.328700 0.000243
30.338600 0.000243
30.348500 0.000243
30.358400 0.000243
30.368300 0.000242
30.378200 0.000242
30.388100 0.000242
30.398000 0.000242
30.407900 0.000242
30.417800 0.000242
30.427700 0.000241
30.437600 0.000241
30.447500 0.000241
30.457400 0.000241
30.467300 0.000241
30.477200 0.000241
30.487100 0.000240
30.497000 0.000240
30.506900 0.000240
30.516800 0.000240
30.526700 0.000240
30.536600 0.000240
30.546500 0.000239
30.556400 0.000239
30.566300 0.000239
30.576200 0.000239
30.586100 0.000239
30.596000 0.000239
30.605900 0.000238
30.615800 0.000238
30.625700 0.000238
30.635600 0.000238
30.645500 0.000238
30.655400 0.000238
30.665300 0.000237
30.675200 0.000237
30.685100 0.000237
30.695000 0.000237
30.704900 0.000237
30.714800 0.000237
30.724700 0.000236
30.734600 0.000236
30.744500 0.000236
30.754400 0.000236
30.764300 0.000236
30.774200 0.000236
30.784100 0.000235
30.794000 0.000235
30.803900 0.000235
30.813800 0.000235
30.823700 0.000235
30.833600 0.000235
30.843500 0.000234
30.853400 0.000234
30.863300 0.000234
30.873200 0.000234
30.883100 0.000234
30.893000 0.000234
30.902900 0.000233
30.912800 0.000233
30.922700 0.000233
30.932600 0.000233
30.942500 0.000233
30.952400 0.000233
30.962300 0.000232
30.972200 0.000232
30.982100 0.000232
30.992000 0.000232
31.001900 0.000232
31.011800 0.000232
31.021700 0.000231
31.031600 0.000231
31.041500 0.000231
31.051400 0.000231
31.061300 0.000231
31.071200 0.000231
31.081100 0.000231
31.091000 0.000230
31.100900 0.000230
31.110800 0.000230
31.120700 0.000230
31.130600 0.000230
31.140500 0.000230
31.150400 0.000229
31.160300 0.000229
31.170200 0.000229
31.180100 0.000229
31.190000 0.000229
31.199900 0.000229
31.209800 0.000228
31.219700 0.000228
31.229600 0.000228
31.239500 0.000228
31.249400 0.000228
31.259300 0.000228
31.269200 0.000228
31.279100 0.000227
31.289000 0.000227
31.298900 0.000227
31.308800 0.000227
31.318700 0.000227
31.328600 0.000227
31.338500 0.000226
31.348400 0.000226
31.358300 0.000226
31.368200 0.000226
31.378100 0.000226
31.388000 0.000226
31.397900 0.000226
31.407800 0.000225
31.417700 0.000225
31.427600 0.000225
31.437500 0.000225
31.447400 0.000225
31.457300 0.000225
31.467200 0.000224
31.477100 0.000224
31.487000 0.000224
31.496900 0.000224
31.506800 0.000224
31.516700 0.000224
31.526600 0.000224
31.536500 0.000223
31.546400 0.000223
31.556300 0.000223
31.566200 0.000223
31.576100 0.000223
31.586000 0.000223
31.595900 0.000222
31.605800 0.000222
31.615700 0.000222
31.625600 0.000222
31.635500 0.000222
31.645400 0.000222
31.655300 0.000222
31.665200 0.000221
31.675100 0.000221
31.685000 0.000221
31.694900 0.000221
31.704800 0.000221
31.714700 0.000221
31.724600 0.000221
31.734500 0.000220
31.744400 0.000220
31.754300 0.000220
31.764200 0.000220
31.774100 0.000220
31.784000 0.000220
31.793900 0.000219
31.803800 0.000219
31.813700 0.000219
31.823600 0.000219
31.833500 0.000219
31.843400 0.000219
31.853300 0.000219
31.863200 0.000218
31.873100 0.000218
31.883000 0.000218
31.892900 0.000218
31.902800 0.000218
31.912700 0.000218
31.922600 0.000218
31.932500 0.000217
31.942400 0.000217
31.952300 0.000217
31.962200 0.000217
31.972100 0.000217
31.982000 0.000217
31.991900 0.000217
32.001800 0.000216
32.011700 0.000216
32.021600 0.000216
32.031500 0.000216
32.041400 0.000216
32.051300 0.000216
32.061200 0.000216
32.071100 0.000215
32.081000 0.000215
32.090900 0.000215
32.100800 0.000215
32.110700 0.000215
32.120600 0.000215
32.130500 0.000215
32.140400 0.000214
32.150300 0.000214
32.160200 0.000214
32.170100 0.000214
32.180000 0.000214
32.189900 0.000214
32.199800 0.000214
32.209700 0.000213
32.219600 0.000213
32.229500 0.000213
32.239400 0.000213
32.249300 0.000213
32.259200 0.000213
32.269100 0.000213
32.279000 0.000212
32.288900 0.000212
32.298800 0.000212
32.308700 0.000212
32.318600 0.000212
32.328500 0.000212
32.338400 0.000212
32.348300 0.000211
32.358200 0.000211
32.368100 0.000211
32.378000 0.000211
32.387900 0.000211
32.397800 0.000211
32.407700 0.000211
32.417600 0.000210
32.427500 0.000210
32.437400 0.000210
32.447300 0.000210
32.457200 0.000210
32.467100 0.000210
32.477000 0.000210
32.486900 0.000210
32.496800 0.000209
32.506700 0.000209
32.516600 0.000209
32.526500 0.000209
32.536400 0.000209
32.546300 0.000209
32.556200 0.000209
32.566100 0.000208
32.576000 0.000208
32.585900 0.000208
32.595800 0.000208
32.605700 0.000208
32.615600 0.000208
32.625500 0.000208
32.635400 0.000207
32.645300 0.000207
32.655200 0.000207
32.665100 0.000207
32.675000 0.000207
32.684900 0.000207
32.694800 0.000207
32.704700 0.000207
32.714600 0.000206
32.724500 0.000206
32.734400 0.000206
32.744300 0.000206
32.754200 0.000206
32.764100 0.000206
32.774000 0.000206
32.783900 0.000205
32.793800 0.000205
32.803700 0.000205
32.813600 0.000205
32.823500 0.000205
32.833400 0.000205
32.843300 0.000205
32.853200 0.000205
32.863100 0.000204
32.873000 0.000204
32.882900 0.000204
32.892800 0.000204
32.902700 0.000204
32.912600 0.000204
32.922500 0.000204
32.932400 0.000203
32.942300 0.000203
32.952200 0.000203
32.962100 0.000203
32.972000 0.000203
32.981900 0.000203
32.991800 0.000203
33.001700 0.000203
33.011600 0.000202
33.021500 0.000202
33.031400 0.000202
33.041300 0.000202
33.051200 0.000202
33.061100 0.000202
33.071000 0.000202
33.080900 0.000202
33.090800 0.000201
33.100700 0.000201
33.110600 0.000201
33.120500 0.000201
33.130400 0.000201
33.140300 0.000201
33.150200 0.000201
33.160100 0.000201
33.170000 0.000200
33.179900 0.000200
33.189800 0.000200
33.199700 0.000200
33.209600 0.000200
33.219500 0.000200
33.229400 0.000200
33.239300 0.000199
33.249200 0.000199
33.259100 0.000199
33.269000 0.000199
33.278900 0.000199
33.288800 0.000199
33.298700 0.000199
33.308600 0.000199
33.318500 0.000198
33.328400 0.000198
33.338300 0.000198
33.348200 0.000198
33.358100 0.000198
33.368000 0.000198
33.377900 0.000198
33.387800 0.000198
33.397700 0.000197
33.407600 0.000197
33.417500 0.000197
33.427400 0.000197
33.437300 0.000197
33.447200 0.000197
33.457100 0.000197
33.467000 0.000197
33.476900 0.000196
33.486800 0.000196
33.496700 0.000196
33.506600 0.000196
33.516500 0.000196
33.526400 0.000196
33.536300 0.000196
33.546200 0.000196
33.556100 0.000195
33.566000 0.000195
33.575900 0.000195
33.585800 0.000195
33.595700 0.000195
33.605600 0.000195
33.615500 0.000195
33.625400 0.000195
33.635300 0.000194
33.645200 0.000194
33.655100 0.000194
33.665000 0.000194
33.674900 0.000194
33.684800 0.000194
33.694700 0.000194
33.704600 0.000194
33.714500 0.000194
33.724400 0.000193
33.734300 0.000193
33.744200 0.000193
33.754100 0.000193
33.764000 0.000193
33.773900 0.000193
33.783800 0.000193
33.793700 0.000193
33.803600 0.000192
33.813500 0.000192
33.823400 0.000192
33.833300 0.000192
33.843200 0.000192
33.853100 0.000192
33.863000 0.000192
33.872900 0.000192
33.882800 0.000191
33.892700 0.000191
33.902600 0.000191
33.912500 0.000191
33.922400 0.000191
33.932300 0.000191
33.942200 0.000191
33.952100 0.000191
33.962000 0.000191
33.971900 0.000190
33.981800 0.000190
33.991700 0.000190
34.001600 0.000190
34.011500 0.000190
34.021400 0.000190
34.031300 0.000190
34.041200 0.000190
34.051100 0.000189
34.061000 0.000189
34.070900 0.000189
34.080800 0.000189
34.090700 0.000189
34.100600 0.000189
34.110500 0.000189
34.120400 0.000189
34.130300 0.000189
34.140200 0.000188
34.150100 0.000188
34.160000 0.000188
34.169900 0.000188
34.179800 0.000188
34.189700 0.000188
34.199600 0.000188
34.209500 0.000188
34.219400 0.000187
34.229300 0.000187
34.239200 0.000187
34.249100 0.000187
34.259000 0.000187
34.268900 0.000187
34.278800 0.000187
34.288700 0.000187
34.298600 0.000187
34.308500 0.000186
34.318400 0.000186
34.328300 0.000186
34.338200 0.000186
34.348100 0.000186
34.358000 0.000186
34.367900 0.000186
34.377800 0.000186
34.387700 0.000186
34.397600 0.000185
34.407500 0.000185
34.417400 0.000185
34.427300 0.000185
34.437200 0.000185
34.447100 0.000185
34.457000 0.000185
34.466900 0.000185
34.476800 0.000185
34.486700 0.000184
34.496600 0.000184
34.506500 0.000184
34.516400 0.000184
34.526300 0.000184
34.536200 0.000184
34.546100 0.000184
34.556000 0.000184
34.565900 0.000183
34.575800 0.000183
34.585700 0.000183
34.595600 0.000183
34.605500 0.000183
34.615400 0.000183
34.625300 0.000183
34.635200 0.000183
34.645100 0.000183
34.655000 0.000182
34.664900 0.000182
34.674800 0.000182
34.684700 0.000182
34.694600 0.000182
34.704500 0.000182
34.714400 0.000182
34.724300 0.000182
34.734200 0.000182
34.744100 0.000181
34.754000 0.000181
34.763900 0.000181
34.773800 0.000181
34.783700 0.000181
34.793600 0.000181
34.803500 0.000181
34.813400 0.000181
34.823300 0.000181
34.833200 0.000181
34.843100 0.000180
34.853000 0.000180
34.862900 0.000180
34.872800 0.000180
34.882700 0.000180
34.892600 0.000180
34.902500 0.000180
34.912400 0.000180
34.922300 0.000180
34.932200 0.000179
34.942100 0.000179
34.952000 0.000179
34.961900 0.000179
34.971800 0.000179
34.981700 0.000179
34.991600 0.000179
35.001500 0.000179
35.011400 0.000179
35.021300 0.000178
35.031200 0.000178
35.041100 0.000178
35.051000 0.000178
35.060900 0.000178
35.070800 0.000178
35.080700 0.000178
35.090600 0.000178
35.100500 0.000178
35.110400 0.000177
35.120300 0.000177
35.130200 0.000177
35.140100 0.000177
35.150000 0.000177
35.159900 0.000177
35.169800 0.000177
35.179700 0.000177
35.189600 0.000177
35.199500 0.000177
35.209400 0.000176
35.219300 0.000176
35.229200 0.000176
35.239100 0.000176
35.249000 0.000176
35.258900 0.000176
35.268800 0.000176
35.278700 0.000176
35.288600 0.000176
35.298500 0.000175
35.308400 0.000175
35.318300 0.000175
35.328200 0.000175
35.338100 0.000175
35.348000 0.000175
35.357900 0.000175
35.367800 0.000175
35.377700 0.000175
35.387600 0.000175
35.397500 0.000174
35.407400 0.000174
35.417300 0.000174
35.427200 0.000174
35.437100 0.000174
35.447000 0.000174
35.456900 0.000174
35.466800 0.000174
35.476700 0.000174
35.486600 0.000174
35.496500 0.000173
35.506400 0.000173
35.516300 0.000173
35.526200 0.000173
35.536100 0.000173
35.546000 0.000173
35.555900 0.000173
35.565800 0.000173
35.575700 0.000173
35.585600 0.000172
35.595500 0.000172
35.605400 0.000172
35.615300 0.000172
35.625200 0.000172
35.635100 0.000172
35.645000 0.000172
35.654900 0.000172
35.664800 0.000172
35.674700 0.000172
35.684600 0.000171
35.694500 0.000171
35.704400 0.000171
35.714300 0.000171
35.724200 0.000171
35.734100 0.000171
35.744000 0.000171
35.753900 0.000171
35.763800 0.000171
35.773700 0.000171
35.783600 0.000170
35.793500 0.000170
35.803400 0.000170
35.813300 0.000170
35.823200 0.000170
35.833100 0.000170
35.843000 0.000170
35.852900 0.000170
35.862800 0.000170
35.872700 0.000170
35.882600 0.000169
35.892500 0.000169
35.902400 0.000169
35.912300 0.000169
35.922200 0.000169
35.932100 0.000169
35.942000 0.000169
35.951900 0.000169
35.961800 0.000169
35.971700 0.000169
35.981600 0.000168
35.991500 0.000168
36.001400 0.000168
36.011300 0.000168
36.021200 0.000168
36.031100 0.000168
36.041000 0.000168
36.050900 0.000168
36.060800 0.000168
36.070700 0.000168
36.080600 0.000168
36.090500 0.000167
36.100400 0.000167
36.110300 0.000167
36.120200 0.000167
36.130100 0.000167
36.140000 0.000167
36.149900 0.000167
36.159800 0.000167
36.169700 0.000167
36.179600 0.000167
36.189500 0.000166
36.199400 0.000166
36.209300 0.000166
36.219200 0.000166
36.229100 0.000166
36.239000 0.000166
36.248900 0.000166
36.258800 0.000166
36.268700 0.000166
36.278600 0.000166
36.288500 0.000165
36.298400 0.000165
36.308300 0.000165
36.318200 0.000165
36.328100 0.000165
36.338000 0.000165
36.347900 0.000165
36.357800 0.000165
36.367700 0.000165
36.377600 0.000165
36.387500 0.000165
36.397400 0.000164
36.407300 0.000164
36.417200 0.000164
36.427100 0.000164
36.437000 0.000164
36.446900 0.000164
36.456800 0.000164
36.466700 0.000164
36.476600 0.000164
36.486500 0.000164
36.496400 0.000164
36.506300 0.000163
36.516200 0.000163
36.526100 0.000163
36.536000 0.000163
36.545900 0.000163
36.555800 0.000163
36.565700 0.000163
36.575600 0.000163
36.585500 0.000163
36.595400 0.000163
36.605300 0.000162
36.615200 0.000162
36.625100 0.000162
36.635000 0.000162
36.644900 0.000162
36.654800 0.000162
36.664700 0.000162
36.674600 0.000162
36.684500 0.000162
36.694400 0.000162
36.704300 0.000162
36.714200 0.000161
36.724100 0.000161
36.734000 0.000161
36.743900 0.000161
36.753800 0.000161
36.763700 0.000161
36.773600 0.000161
36.783500 0.000161
36.793400 0.000161
36.803300 0.000161
36.813200 0.000161
36.823100 0.000160
36.833000 0.000160
36.842900 0.000160
36.852800 0.000160
36.862700 0.000160
36.872600 0.000160
36.882500 0.000160
36.892400 0.000160
36.902300 0.000160
36.912200 0.000160
36.922100 0.000160
36.932000 0.000159
36.941900 0.000159
36.951800 0.000159
36.961700 0.000159
36.971600 0.000159
36.981500 0.000159
36.991400 0.000159
37.001300 0.000159
37.011200 0.000159
37.021100 0.000159
37.031000 0.000159
37.040900 0.000158
37.050800 0.000158
37.060700 0.000158
37.070600 0.000158
37.080500 0.000158
37.090400 0.000158
37.100300 0.000158
37.110200 0.000158
37.120100 0.000158
37.130000 0.000158
37.139900 0.000158
37.149800 0.000157
37.159700 0.000157
37.169600 0.000157
37.179500 0.000157
37.189400 0.000157
37.199300 0.000157
37.209200 0.000157
37.219100 0.000157
37.229000 0.000157
37.238900 0.000157
37.248800 0.000157
37.258700 0.000157
37.268600 0.000156
37.278500 0.000156
37.288400 0.000156
37.298300 0.000156
37.308200 0.000156
37.318100 0.000156
37.328000 0.000156
37.337900 0.000156
37.347800 0.000156
37.357700 0.000156
37.367600 0.000156
37.377500 0.000155
37.387400 0.000155
37.397300 0.000155
37.407200 0.000155
37.417100 0.000155
37.427000 0.000155
37.436900 0.000155
37.446800 0.000155
37.456700 0.000155
37.466600 0.000155
37.476500 0.000155
37.486400 0.000155
37.496300 0.000154
37.506200 0.000154
37.516100 0.000154
37.526000 0.000154
37.535900 0.000154
37.545800 0.000154
37.555700 0.000154
37.565600 0.000154
37.575500 0.000154
37.585400 0.000154
37.595300 0.000154
37.605200 0.000153
37.615100 0.000153
37.625000 0.000153
37.634900 0.000153
37.644800 0.000153
37.654700 0.000153
37.664600 0.000153
37.674500 0.000153
37.684400 0.000153
37.694300 0.000153
37.704200 0.000153
37.714100 0.000153
37.724000 0.000152
37.733900 0.000152
37.743800 0.000152
37.753700 0.000152
37.763600 0.000152
37.773500 0.000152
37.783400 0.000152
37.793300 0.000152
37.803200 0.000152
37.813100 0.000152
37.823000 0.000152
37.832900 0.000152
37.842800 0.000151
37.852700 0.000151
37.862600 0.000151
37.872500 0.000151
37.882400 0.000151
37.892300 0.000151
37.902200 0.000151
37.912100 0.000151
37.922000 0.000151
37.931900 0.000151
37.941800 0.000151
37.951700 0.000151
37.961600 0.000150
37.971500 0.000150
37.981400 0.000150
37.991300 0.000150
38.001200 0.000150
38.011100 0.000150
38.021000 0.000150
38.030900 0.000150
38.040800 0.000150
38.050700 0.000150
38.060600 0.000150
38.070500 0.000150
38.080400 0.000149
38.090300 0.000149
38.100200 0.000149
38.110100 0.000149
38.120000 0.000149
38.129900 0.000149
38.139800 0.000149
38.149700 0.000149
38.159600 0.000149
38.169500 0.000149
38.179400 0.000149
38.189300 0.000149
38.199200 0.000149
38.209100 0.000148
38.219000 0.000148
38.228900 0.000148
38.238800 0.000148
38.248700 0.000148
38.258600 0.000148
38.268500 0.000148
38.278400 0.000148
38.288300 0.000148
38.298200 0.000148
38.308100 0.000148
38.318000 0.000148
38.327900 0.000147
38.337800 0.000147
38.347700 0.000147
38.357600 0.000147
38.367500 0.000147
38.377400 0.000147
38.387300 0.000147
38.397200 0.000147
38.407100 0.000147
38.417000 0.000147
38.426900 0.000147
38.436800 0.000147
38.446700 0.000147
38.456600 0.000146
38.466500 0.000146
38.476400 0.000146
38.486300 0.000146
38.496200 0.000146
38.506100 0.000146
38.516000 0.000146
38.525900 0.000146
38.535800 0.000146
38.545700 0.000146
38.555600 0.000146
38.565500 0.000146
38.575400 0.000145
38.585300 0.000145
38.595200 0.000145
38.605100 0.000145
38.615000 0.000145
38.624900 0.000145
38.634800 0.000145
38.644700 0.000145
38.654600 0.000145
38.664500 0.000145
38.674400 0.000145
38.684300 0.000145
38.694200 0.000145
38.704100 0.000144
38.714000 0.000144
38.723900 0.000144
38.733800 0.000144
38.743700 0.000144
38.753600 0.000144
38.763500 0.000144
38.773400 0.000144
38.783300 0.000144
38.793200 0.000144
38.803100 0.000144
38.813000 0.000144
38.822900 0.000144
38.832800 0.000143
38.842700 0.000143
38.852600 0.000143
38.862500 0.000143
38.872400 0.000143
38.882300 0.000143
38.892200 0.000143
38.902100 0.000143
38.912000 0.000143
38.921900 0.000143
38.931800 0.000143
38.941700 0.000143
38.951600 0.000143
38.961500 0.000142
38.971400 0.000142
38.981300 0.000142
38.991200 0.000142
39.001100 0.000142
39.011000 0.000142
39.020900 0.000142
39.030800 0.000142
39.040700 0.000142
39.050600 0.000142
39.060500 0.000142
39.070400 0.000142
39.080300 0.000142
39.090200 0.000141
39.100100 0.000141
39.110000 0.000141
39.119900 0.000141
39.129800 0.000141
39.139700 0.000141
39.149600 0.000141
39.159500 0.000141
39.169400 0.000141
39.179300 0.000141
39.189200 0.000141
39.199100 0.000141
39.209000 0.000141
39.218900 0.000141
39.228800 0.000140
39.238700 0.000140
39.248600 0.000140
39.258500 0.000140
39.268400 0.000140
39.278300 0.000140
39.288200 0.000140
39.298100 0.000140
39.308000 0.000140
39.317900 0.000140
39.327800 0.000140
39.337700 0.000140
39.347600 0.000140
39.357500 0.000139
39.367400 0.000139
39.377300 0.000139
39.387200 0.000139
39.397100 0.000139
39.407000 0.000139
39.416900 0.000139
39.426800 0.000139
39.436700 0.000139
39.446600 0.000139
39.456500 0.000139
39.466400 0.000139
39.476300 0.000139
39.486200 0.000139
39.496100 0.000138
39.506000 0.000138
39.515900 0.000138
39.525800 0.000138
39.535700 0.000138
39.545600 0.000138
39.555500 0.000138
39.565400 0.000138
39.575300 0.000138
39.585200 0.000138
39.595100 0.000138
39.605000 0.000138
39.614900 0.000138
39.624800 0.000138
39.634700 0.000137
39.644600 0.000137
39.654500 0.000137
39.664400 0.000137
39.674300 0.000137
39.684200 0.000137
39.694100 0.000137
39.704000 0.000137
39.713900 0.000137
39.723800 0.000137
39.733700 0.000137
39.743600 0.000137
39.753500 0.000137
39.763400 0.000137
39.773300 0.000136
39.783200 0.000136
39.793100 0.000136
39.803000 0.000136
39.812900 0.000136
39.822800 0.000136
39.832700 0.000136
39.842600 0.000136
39.852500 0.000136
39.862400 0.000136
39.872300 0.000136
39.882200 0.000136
39.892100 0.000136
39.902000 0.000136
39.911900 0.000135
39.921800 0.000135
39.931700 0.000135
39.941600 0.000135
39.951500 0.000135
39.961400 0.000135
39.971300 0.000135
39.981200 0.000135
39.991100 0.000135
40.001000 0.000135
40.010900 0.000135
40.020800 0.000135
40.030700 0.000135
40.040600 0.000135
40.050500 0.000134
40.060400 0.000134
40.070300 0.000134
40.080200 0.000134
40.090100 0.000134
40.100000 0.000134
40.109900 0.000134
40.119800 0.000134
40.129700 0.000134
40.139600 0.000134
40.149500 0.000134
40.159400 0.000134
40.169300 0.000134
40.179200 0.000134
40.189100 0.000133
40.199000 0.000133
40.208900 0.000133
40.218800 0.000133
40.228700 0.000133
40.238600 0.000133
40.248500 0.000133
40.258400 0.000133
40.268300 0.000133
40.278200 0.000133
40.288100 0.000133
40.298000 0.000133
40.307900 0.000133
40.317800 0.000133
40.327700 0.000133
40.337600 0.000132
40.347500 0.000132
40.357400 0.000132
40.367300 0.000132
40.377200 0.000132
40.387100 0.000132
40.397000 0.000132
40.406900 0.000132
40.416800 0.000132
40.426700 0.000132
40.436600 0.000132
40.446500 0.000132
40.456400 0.000132
40.466300 0.000132
40.476200 0.000132
40.486100 0.000131
40.496000 0.000131
40.505900 0.000131
40.515800 0.000131
40.525700 0.000131
40.535600 0.000131
40.545500 0.000131
40.555400 0.000131
40.565300 0.000131
40.575200 0.000131
40.585100 0.000131
40.595000 0.000131
40.604900 0.000131
40.614800 0.000131
40.624700 0.000131
40.634600 0.000130
40.644500 0.000130
40.654400 0.000130
40.664300 0.000130
40.674200 0.000130
40.684100 0.000130
40.694000 0.000130
40.703900 0.000130
40.713800 0.000130
40.723700 0.000130
40.733600 0.000130
40.743500 0.000130
40.753400 0.000130
40.763300 0.000130
40.773200 0.000130
40.783100 0.000129
40.793000 0.000129
40.802900 0.000129
40.812800 0.000129
40.822700 0.000129
40.832600 0.000129
40.842500 0.000129
40.852400 0.000129
40.862300 0.000129
40.872200 0.000129
40.882100 0.000129
40.892000 0.000129
40.901900 0.000129
40.911800 0.000129
40.921700 0.000129
40.931600 0.000128
40.941500 0.000128
40.951400 0.000128
40.961300 0.000128
40.971200 0.000128
40.981100 0.000128
40.991000 0.000128
41.000900 0.000128
41.010800 0.000128
41.020700 0.000128
41.030600 0.000128
41.040500 0.000128
41.050400 0.000128
41.060300 0.000128
41.070200 0.000128
41.080100 0.000128
41.090000 0.000127
41.099900 0.000127
41.109800 0.000127
41.119700 0.000127
41.129600 0.000127
41.139500 0.000127
41.149400 0.000127
41.159300 0.000127
41.169200 0.000127
41.179100 0.000127
41.189000 0.000127
41.198900 0.000127
41.208800 0.000127
41.218700 0.000127
41.228600 0.000127
41.238500 0.000126
41.248400 0.000126
41.258300 0.000126
41.268200 0.000126
41.278100 0.000126
41.288000 0.000126
41.297900 0.000126
41.307800 0.000126
41.317700 0.000126
41.327600 0.000126
41.337500 0.000126
41.347400 0.000126
41.357300 0.000126
41.367200 0.000126
41.377100 0.000126
41.387000 0.000126
41.396900 0.000125
41.406800 0.000125
41.416700 0.000125
41.426600 0.000125
41.436500 0.000125
41.446400 0.000125
41.456300 0.000125
41.466200 0.000125
41.476100 0.000125
41.486000 0.000125
41.495900 0.000125
41.505800 0.000125
41.515700 0.000125
41.525600 0.000125
41.535500 0.000125
41.545400 0.000125
41.555300 0.000124
41.565200 0.000124
41.575100 0.000124
41.585000 0.000124
41.594900 0.000124
41.604800 0.000124
41.614700 0.000124
41.624600 0.000124
41.634500 0.000124
41.644400 0.000124
41.654300 0.000124
41.664200 0.000124
41.674100 0.000124
41.684000 0.000124
41.693900 0.000124
41.703800 0.000124
41.713700 0.000124
41.723600 0.000123
41.733500 0.000123
41.743400 0.000123
41.753300 0.000123
41.763200 0.000123
41.773100 0.000123
41.783000 0.000123
41.792900 0.000123
41.802800 0.000123
41.812700 0.000123
41.822600 0.000123
41.832500 0.000123
41.842400 0.000123
41.852300 0.000123
41.862200 0.000123
41.872100 0.000123
41.882000 0.000122
41.891900 0.000122
41.901800 0.000122
41.911700 0.000122
41.921600 0.000122
41.931500 0.000122
41.941400 0.000122
41.951300 0.000122
41.961200 0.000122
41.971100 0.000122
41.981000 0.000122
41.990900 0.000122
42.000800 0.000122
42.010700 0.000122
42.020600 0.000122
42.030500 0.000122
42.040400 0.000122
42.050300 0.000121
42.060200 0.000121
42.070100 0.000121
42.080000 0.000121
42.089900 0.000121
42.099800 0.000121
42.109700 0.000121
42.119600 0.000121
42.129500 0.000121
42.139400 0.000121
42.149300 0.000121
42.159200 0.000121
42.169100 0.000121
42.179000 0.000121
42.188900 0.000121
42.198800 0.000121
42.208700 0.000121
42.218600 0.000120
42.228500 0.000120
42.238400 0.000120
42.248300 0.000120
42.258200 0.000120
42.268100 0.000120
42.278000 0.000120
42.287900 0.000120
42.297800 0.000120
42.307700 0.000120
42.317600 0.000120
42.327500 0.000120
42.337400 0.000120
42.347300 0.000120
42.357200 0.000120
42.367100 0.000120
42.377000 0.000120
42.386900 0.000119
42.396800 0.000119
42.406700 0.000119
42.416600 0.000119
42.426500 0.000119
42.436400 0.000119
42.446300 0.000119
42.456200 0.000119
42.466100 0.000119
42.476000 0.000119
42.485900 0.000119
42.495800 0.000119
42.505700 0.000119
42.515600 0.000119
42.525500 0.000119
42.535400 0.000119
42.545300 0.000119
42.555200 0.000118
42.565100 0.000118
42.575000 0.000118
42.584900 0.000118
42.594800 0.000118
42.604700 0.000118
42.614600 0.000118
42.624500 0.000118
42.634400 0.000118
42.644300 0.000118
42.654200 0.000118
42.664100 0.000118
42.674000 0.000118
42.683900 0.000118
42.693800 0.000118
42.703700 0.000118
42.713600 0.000118
42.723500 0.000117
42.733400 0.000117
42.743300 0.000117
42.753200 0.000117
42.763100 0.000117
42.773000 0.000117
42.782900 0.000117
42.792800 0.000117
42.802700 0.000117
42.812600 0.000117
42.822500 0.000117
42.832400 0.000117
42.842300 0.000117
42.852200 0.000117
42.862100 0.000117
42.872000 0.000117
42.881900 0.000117
42.891800 0.000117
42.901700 0.000116
42.911600 0.000116
42.921500 0.000116
42.931400 0.000116
42.941300 0.000116
42.951200 0.000116
42.961100 0.000116
42.971000 0.000116
42.980900 0.000116
42.990800 0.000116
43.000700 0.000116
43.010600 0.000116
43.020500 0.000116
43.030400 0.000116
43.040300 0.000116
43.050200 0.000116
43.060100 0.000116
43.070000 0.000116
43.079900 0.000115
43.089800 0.000115
43.099700 0.000115
43.109600 0.000115
43.119500 0.000115
43.129400 0.000115
43.139300 0.000115
43.149200 0.000115
43.159100 0.000115
43.169000 0.000115
43.178900 0.000115
43.188800 0.000115
43.198700 0.000115
43.208600 0.000115
43.218500 0.000115
43.228400 0.000115
43.238300 0.000115
43.248200 0.000115
43.258100 0.000114
43.268000 0.000114
43.277900 0.000114
43.287800 0.000114
43.297700 0.000114
43.307600 0.000114
43.317500 0.000114
43.327400 0.000114
43.337300 0.000114
43.347200 0.000114
43.357100 0.000114
43.367000 0.000114
43.376900 0.000114
43.386800 0.000114
43.396700 0.000114
43.406600 0.000114
43.416500 0.000114
43.426400 0.000114
43.436300 0.000114
43.446200 0.000113
43.456100 0.000113
43.466000 0.000113
43.475900 0.000113
43.485800 0.000113
43.495700 0.000113
43.505600 0.000113
43.515500 0.000113
43.525400 0.000113
43.535300 0.000113
43.545200 0.000113
43.555100 0.000113
43.565000 0.000113
43.574900 0.000113
43.584800 0.000113
43.594700 0.000113
43.604600 0.000113
43.614500 0.000113
43.624400 0.000113
43.634300 0.000112
43.644200 0.000112
43.654100 0.000112
43.664000 0.000112
43.673900 0.000112
43.683800 0.000112
43.693700 0.000112
43.703600 0.000112
43.713500 0.000112
43.723400 0.000112
43.733300 0.000112
43.743200 0.000112
43.753100 0.000112
43.763000 0.000112
43.772900 0.000112
43.782800 0.000112
43.792700 0.000112
43.802600 0.000112
43.812500 0.000112
43.822400 0.000111
43.832300 0.000111
43.842200 0.000111
43.852100 0.000111
43.862000 0.000111
43.871900 0.000111
43.881800 0.000111
43.891700 0.000111
43.901600 0.000111
43.911500 0.000111
43.921400 0.000111
43.931300 0.000111
43.941200 0.000111
43.951100 0.000111
43.961000 0.000111
43.970900 0.000111
43.980800 0.000111
43.990700 0.000111
44.000600 0.000111
44.010500 0.000110
44.020400 0.000110
44.030300 0.000110
44.040200 0.000110
44.050100 0.000110
44.060000 0.000110
44.069900 0.000110
44.079800 0.000110
44.089700 0.000110
44.099600 0.000110
44.109500 0.000110
44.119400 0.000110
44.129300 0.000110
44.139200 0.000110
44.149100 0.000110
44.159000 0.000110
44.168900 0.000110
44.178800 0.000110
44.188700 0.000110
44.198600 0.000109
44.208500 0.000109
44.218400 0.000109
44.228300 0.000109
44.238200 0.000109
44.248100 0.000109
44.258000 0.000109
44.267900 0.000109
44.277800 0.000109
44.287700 0.000109
44.297600 0.000109
44.307500 0.000109
44.317400 0.000109
44.327300 0.000109
44.337200 0.000109
44.347100 0.000109
44.357000 0.000109
44.366900 0.000109
44.376800 0.000109
44.386700 0.000109
44.396600 0.000108
44.406500 0.000108
44.416400 0.000108
44.426300 0.000108
44.436200 0.000108
44.446100 0.000108
44.456000 0.000108
44.465900 0.000108
44.475800 0.000108
44.485700 0.000108
44.495600 0.000108
44.505500 0.000108
44.515400 0.000108
44.525300 0.000108
44.535200 0.000108
44.545100 0.000108
44.555000 0.000108
44.564900 0.000108
44.574800 0.000108
44.584700 0.000108
44.594600 0.000107
44.604500 0.000107
44.614400 0.000107
44.624300 0.000107
44.634200 0.000107
44.644100 0.000107
44.654000 0.000107
44.663900 0.000107
44.673800 0.000107
44.683700 0.000107
44.693600 0.000107
44.703500 0.000107
44.713400 0.000107
44.723300 0.000107
44.733200 0.000107
44.743100 0.000107
44.753000 0.000107
44.762900 0.000107
44.772800 0.000107
44.782700 0.000107
44.792600 0.000107
44.802500 0.000106
44.812400 0.000106
44.822300 0.000106
44.832200 0.000106
44.842100 0.000106
44.852000 0.000106
44.861900 0.000106
44.871800 0.000106
44.881700 0.000106
44.891600 0.000106
44.901500 0.000106
44.911400 0.000106
44.921300 0.000106
44.931200 0.000106
44.941100 0.000106
44.951000 0.000106
44.960900 0.000106
44.970800 0.000106
44.980700 0.000106
44.990600 0.000106
45.000500 0.000105
45.010400 0.000105
45.020300 0.000105
45.030200 0.000105
45.040100 0.000105
45.050000 0.000105
45.059900 0.000105
45.069800 0.000105
45.079700 0.000105
45.089600 0.000105
45.099500 0.000105
45.109400 0.000105
45.119300 0.000105
45.129200 0.000105
45.139100 0.000105
45.149000 0.000105
45.158900 0.000105
45.168800 0.000105
45.178700 0.000105
45.188600 0.000105
45.198500 0.000105
45.208400 0.000104
45.218300 0.000104
45.228200 0.000104
45.238100 0.000104
45.248000 0.000104
45.257900 0.000104
45.267800 0.000104
45.277700 0.000104
45.287600 0.000104
45.297500 0.000104
45.307400 0.000104
45.317300 0.000104
45.327200 0.000104
45.337100 0.000104
45.347000 0.000104
45.356900 0.000104
45.366800 0.000104
45.376700 0.000104
45.386600 0.000104
45.396500 0.000104
45.406400 0.000104
45.416300 0.000103
45.426200 0.000103
45.436100 0.000103
45.446000 0.000103
45.455900 0.000103
45.465800 0.000103
45.475700 0.000103
45.485600 0.000103
45.495500 0.000103
45.505400 0.000103
45.515300 0.000103
45.525200 0.000103
45.535100 0.000103
45.545000 0.000103
45.554900 0.000103
45.564800 0.000103
45.574700 0.000103
45.584600 0.000103
45.594500 0.000103
45.604400 0.000103
45.614300 0.000103
45.624200 0.000103
45.634100 0.000102
45.644000 0.000102
45.653900 0.000102
45.663800 0.000102
45.673700 0.000102
45.683600 0.000102
45.693500 0.000102
45.703400 0.000102
45.713300 0.000102
45.723200 0.000102
45.733100 0.000102
45.743000 0.000102
45.752900 0.000102
45.762800 0.000102
45.772700 0.000102
45.782600 0.000102
45.792500 0.000102
45.802400 0.000102
45.812300 0.000102
45.822200 0.000102
45.832100 0.000102
45.842000 0.000102
45.851900 0.000101
45.861800 0.000101
45.871700 0.000101
45.881600 0.000101
45.891500 0.000101
45.901400 0.000101
45.911300 0.000101
45.921200 0.000101
45.931100 0.000101
45.941000 0.000101
45.950900 0.000101
45.960800 0.000101
45.970700 0.000101
45.980600 0.000101
45.990500 0.000101
46.000400 0.000101
46.010300 0.000101
46.020200 0.000101
46.030100 0.000101
46.040000 0.000101
46.049900 0.000101
46.059800 0.000101
46.069700 0.000100
46.079600 0.000100
46.089500 0.000100
46.099400 0.000100
46.109300 0.000100
46.119200 0.000100
46.129100 0.000100
46.139000 0.000100
46.148900 0.000100
46.158800 0.000100
46.168700 0.000100
46.178600 0.000100
46.188500 0.000100
46.198400 0.000100
46.208300 0.000100
46.218200 0.000100
46.228100 0.000100
46.238000 0.000100
46.247900 0.000100
46.257800 0.000100
46.267700 0.000100
46.277600 0.000100
46.287500 0.000100
46.297400 0.000099
46.307300 0.000099
46.317200 0.000099
46.327100 0.000099
46.337000 0.000099
46.346900 0.000099
46.356800 0.000099
46.366700 0.000099
46.376600 0.000099
46.386500 0.000099
46.396400 0.000099
46.406300 0.000099
46.416200 0.000099
46.426100 0.000099
46.436000 0.000099
46.445900 0.000099
46.455800 0.000099
46.465700 0.000099
46.475600 0.000099
46.485500 0.000099
46.495400 0.000099
46.505300 0.000099
46.515200 0.000098
46.525100 0.000098
46.535000 0.000098
46.544900 0.000098
46.554800 0.000098
46.564700 0.000098
46.574600 0.000098
46.584500 0.000098
46.594400 0.000098
46.604300 0.000098
46.614200 0.000098
46.624100 0.000098
46.634000 0.000098
46.643900 0.000098
46.653800 0.000098
46.663700 0.000098
46.673600 0.000098
46.683500 0.000098
46.693400 0.000098
46.703300 0.000098
46.713200 0.000098
46.723100 0.000098
46.733000 0.000098
46.742900 0.000098
46.752800 0.000097
46.762700 0.000097
46.772600 0.000097
46.782500 0.000097
46.792400 0.000097
46.802300 0.000097
46.812200 0.000097
46.822100 0.000097
46.832000 0.000097
46.841900 0.000097
46.851800 0.000097
46.861700 0.000097
46.871600 0.000097
46.881500 0.000097
46.891400 0.000097
46.901300 0.000097
46.911200 0.000097
46.921100 0.000097
46.931000 0.000097
46.940900 0.000097
46.950800 0.000097
46.960700 0.000097
46.970600 0.000097
46.980500 0.000096
46.990400 0.000096
47.000300 0.000096
47.010200 0.000096
47.020100 0.000096
47.030000 0.000096
47.039900 0.000096
47.049800 0.000096
47.059700 0.000096
47.069600 0.000096
47.079500 0.000096
47.089400 0.000096
47.099300 0.000096
47.109200 0.000096
47.119100 0.000096
47.129000 0.000096
47.138900 0.000096
47.148800 0.000096
47.158700 0.000096
47.168600 0.000096
47.178500 0.000096
47.188400 0.000096
47.198300 0.000096
47.208200 0.000096
47.218100 0.000095
47.228000 0.000095
47.237900 0.000095
47.247800 0.000095
47.257700 0.000095
47.267600 0.000095
47.277500 0.000095
47.287400 0.000095
47.297300 0.000095
47.307200 0.000095
47.317100 0.000095
47.327000 0.000095
47.336900 0.000095
47.346800 0.000095
47.356700 0.000095
47.366600 0.000095
47.376500 0.000095
47.386400 0.000095
47.396300 0.000095
47.406200 0.000095
47.416100 0.000095
47.426000 0.000095
47.435900 0.000095
47.445800 0.000095
47.455700 0.000095
47.465600 0.000094
47.475500 0.000094
47.485400 0.000094
47.495300 0.000094
47.505200 0.000094
47.515100 0.000094
47.525000 0.000094
47.534900 0.000094
47.544800 0.000094
47.554700 0.000094
47.564600 0.000094
47.574500 0.000094
47.584400 0.000094
47.594300 0.000094
47.604200 0.000094
47.614100 0.000094
47.624000 0.000094
47.633900 0.000094
47.643800 0.000094
47.653700 0.000094
47.663600 0.000094
47.673500 0.000094
47.683400 0.000094
47.693300 0.000094
47.703200 0.000093
47.713100 0.000093
47.723000 0.000093
47.732900 0.000093
47.742800 0.000093
47.752700 0.000093
47.762600 0.000093
47.772500 0.000093
47.782400 0.000093
47.792300 0.000093
47.802200 0.000093
47.812100 0.000093
47.822000 0.000093
47.831900 0.000093
47.841800 0.000093
47.851700 0.000093
47.861600 0.000093
47.871500 0.000093
47.881400 0.000093
47.891300 0.000093
47.901200 0.000093
47.911100 0.000093
47.921000 0.000093
47.930900 0.000093
47.940800 0.000093
47.950700 0.000093
47.960600 0.000092
47.970500 0.000092
47.980400 0.000092
47.990300 0.000092
48.000200 0.000092
48.010100 0.000092
48.020000 0.000092
48.029900 0.000092
48.039800 0.000092
48.049700 0.000092
48.059600 0.000092
48.069500 0.000092
48.079400 0.000092
48.089300 0.000092
48.099200 0.000092
48.109100 0.000092
48.119000 0.000092
48.128900 0.000092
48.138800 0.000092
48.148700 0.000092
48.158600 0.000092
48.168500 0.000092
48.178400 0.000092
48.188300 0.000092
48.198200 0.000092
48.208100 0.000091
48.218000 0.000091
48.227900 0.000091
48.237800 0.000091
48.247700 0.000091
48.257600 0.000091
48.267500 0.000091
48.277400 0.000091
48.287300 0.000091
48.297200 0.000091
48.307100 0.000091
48.317000 0.000091
48.326900 0.000091
48.336800 0.000091
48.346700 0.000091
48.356600 0.000091
48.366500 0.000091
48.376400 0.000091
48.386300 0.000091
48.396200 0.000091
48.406100 0.000091
48.416000 0.000091
48.425900 0.000091
48.435800 0.000091
48.445700 0.000091
48.455600 0.000091
48.465500 0.000090
48.475400 0.000090
48.485300 0.000090
48.495200 0.000090
48.505100 0.000090
48.515000 0.000090
48.524900 0.000090
48.534800 0.000090
48.544700 0.000090
48.554600 0.000090
48.564500 0.000090
48.574400 0.000090
48.584300 0.000090
48.594200 0.000090
48.604100 0.000090
48.614000 0.000090
48.623900 0.000090
48.633800 0.000090
48.643700 0.000090
48.653600 0.000090
48.663500 0.000090
48.673400 0.000090
48.683300 0.000090
48.693200 0.000090
48.703100 0.000090
48.713000 0.000090
48.722900 0.000090
48.732800 0.000089
48.742700 0.000089
48.752600 0.000089
48.762500 0.000089
48.772400 0.000089
48.782300 0.000089
48.792200 0.000089
48.802100 0.000089
48.812000 0.000089
48.821900 0.000089
48.831800 0.000089
48.841700 0.000089
48.851600 0.000089
48.861500 0.000089
48.871400 0.000089
48.881300 0.000089
48.891200 0.000089
48.901100 0.000089
48.911000 0.000089
48.920900 0.000089
48.930800 0.000089
48.940700 0.000089
48.950600 0.000089
48.960500 0.000089
48.970400 0.000089
48.980300 0.000089
48.990200 0.000089
49.000100 0.000088
49.010000 0.000088
49.019900 0.000088
49.029800 0.000088
49.039700 0.000088
49.049600 0.000088
49.059500 0.000088
49.069400 0.000088
49.079300 0.000088
49.089200 0.000088
49.099100 0.000088
49.109000 0.000088
49.118900 0.000088
49.128800 0.000088
49.138700 0.000088
49.148600 0.000088
49.158500 0.000088
49.168400 0.000088
49.178300 0.000088
49.188200 0.000088
49.198100 0.000088
49.208000 0.000088
49.217900 0.000088
49.227800 0.000088
49.237700 0.000088
49.247600 0.000088
49.257500 0.000088
49.267400 0.000087
49.277300 0.000087
49.287200 0.000087
49.297100 0.000087
49.307000 0.000087
49.316900 0.000087
49.326800 0.000087
49.336700 0.000087
49.346600 0.000087
49.356500 0.000087
49.366400 0.000087
49.376300 0.000087
49.386200 0.000087
49.396100 0.000087
49.406000 0.000087
49.415900 0.000087
49.425800 0.000087
49.435700 0.000087
49.445600 0.000087
49.455500 0.000087
49.465400 0.000087
49.475300 0.000087
49.485200 0.000087
49.495100 0.000087
49.505000 0.000087
49.514900 0.000087
49.524800 0.000087
49.534700 0.000087
49.544600 0.000086
49.554500 0.000086
49.564400 0.000086
49.574300 0.000086
49.584200 0.000086
49.594100 0.000086
49.604000 0.000086
49.613900 0.000086
49.623800 0.000086
49.633700 0.000086
49.643600 0.000086
49.653500 0.000086
49.663400 0.000086
49.673300 0.000086
49.683200 0.000086
49.693100 0.000086
49.703000 0.000086
49.712900 0.000086
49.722800 0.000086
49.732700 0.000086
49.742600 0.000086
49.752500 0.000086
49.762400 0.000086
49.772300 0.000086
49.782200 0.000086
49.792100 0.000086
49.802000 0.000086
49.811900 0.000086
49.821800 0.000085
49.831700 0.000085
49.841600 0.000085
49.851500 0.000085
49.861400 0.000085
49.871300 0.000085
49.881200 0.000085
49.891100 0.000085
49.901000 0.000085
49.910900 0.000085
49.920800 0.000085
49.930700 0.000085
49.940600 0.000085
49.950500 0.000085
49.960400 0.000085
49.970300 0.000085
49.980200 0.000085
49.990100 0.000085
50.000000 0.000085
