# Random transverse-field Ising model
# L=22, J=1=gamma, W_J=0.2, W=2.0
# High-T dynamical energy conductivity sigma^E(omega); via MCLM
# omega/J sigma^E(omega)

0.000000 0.497262
0.000500 0.497309
0.001000 0.497444
0.001500 0.497651
0.002000 0.497906
0.002500 0.498189
0.003000 0.498485
0.003500 0.498791
0.004000 0.499117
0.004500 0.499481
0.005000 0.499907
0.005500 0.500415
0.006000 0.501016
0.006500 0.501706
0.007000 0.502469
0.007500 0.503280
0.008000 0.504108
0.008500 0.504925
0.009000 0.505715
0.009500 0.506474
0.010000 0.507210
0.010500 0.507942
0.011000 0.508691
0.011500 0.509475
0.012000 0.510304
0.012500 0.511174
0.013000 0.512074
0.013500 0.512984
0.014000 0.513888
0.014500 0.514773
0.015000 0.515637
0.015500 0.516487
0.016000 0.517340
0.016500 0.518214
0.017000 0.519121
0.017500 0.520066
0.018000 0.521039
0.018500 0.522021
0.019000 0.522986
0.019500 0.523909
0.020000 0.524773
0.020500 0.525575
0.021000 0.526325
0.021500 0.527050
0.022000 0.527780
0.022500 0.528547
0.023000 0.529374
0.023500 0.530270
0.024000 0.531230
0.024500 0.532236
0.025000 0.533262
0.025500 0.534284
0.026000 0.535286
0.026500 0.536263
0.027000 0.537223
0.027500 0.538186
0.028000 0.539173
0.028500 0.540202
0.029000 0.541281
0.029500 0.542407
0.030000 0.543559
0.030500 0.544712
0.031000 0.545838
0.031500 0.546913
0.032000 0.547926
0.032500 0.548877
0.033000 0.549779
0.033500 0.550649
0.034000 0.551505
0.034500 0.552354
0.035000 0.553195
0.035500 0.554013
0.036000 0.554785
0.036500 0.555484
0.037000 0.556093
0.037500 0.556605
0.038000 0.557027
0.038500 0.557381
0.039000 0.557697
0.039500 0.558005
0.040000 0.558327
0.040500 0.558672
0.041000 0.559035
0.041500 0.559396
0.042000 0.559727
0.042500 0.560000
0.043000 0.560198
0.043500 0.560314
0.044000 0.560357
0.044500 0.560347
0.045000 0.560311
0.045500 0.560272
0.046000 0.560246
0.046500 0.560240
0.047000 0.560246
0.047500 0.560252
0.048000 0.560244
0.048500 0.560217
0.049000 0.560175
0.049500 0.560136
0.050000 0.560126
0.050500 0.560178
0.051000 0.560316
0.051500 0.560556
0.052000 0.560900
0.052500 0.561329
0.053000 0.561818
0.053500 0.562333
0.054000 0.562845
0.054500 0.563338
0.055000 0.563809
0.055500 0.564274
0.056000 0.564757
0.056500 0.565290
0.057000 0.565898
0.057500 0.566596
0.058000 0.567384
0.058500 0.568248
0.059000 0.569164
0.059500 0.570104
0.060000 0.571045
0.060500 0.571977
0.061000 0.572899
0.061500 0.573825
0.062000 0.574773
0.062500 0.575761
0.063000 0.576799
0.063500 0.577883
0.064000 0.578998
0.064500 0.580119
0.065000 0.581217
0.065500 0.582269
0.066000 0.583261
0.066500 0.584194
0.067000 0.585084
0.067500 0.585950
0.068000 0.586817
0.068500 0.587698
0.069000 0.588595
0.069500 0.589496
0.070000 0.590375
0.070500 0.591202
0.071000 0.591949
0.071500 0.592597
0.072000 0.593144
0.072500 0.593604
0.073000 0.594003
0.073500 0.594372
0.074000 0.594742
0.074500 0.595134
0.075000 0.595558
0.075500 0.596010
0.076000 0.596484
0.076500 0.596970
0.077000 0.597466
0.077500 0.597980
0.078000 0.598531
0.078500 0.599147
0.079000 0.599853
0.079500 0.600671
0.080000 0.601605
0.080500 0.602644
0.081000 0.603758
0.081500 0.604909
0.082000 0.606054
0.082500 0.607157
0.083000 0.608201
0.083500 0.609184
0.084000 0.610125
0.084500 0.611055
0.085000 0.612008
0.085500 0.613013
0.086000 0.614087
0.086500 0.615227
0.087000 0.616414
0.087500 0.617619
0.088000 0.618810
0.088500 0.619959
0.089000 0.621051
0.089500 0.622085
0.090000 0.623070
0.090500 0.624024
0.091000 0.624963
0.091500 0.625891
0.092000 0.626806
0.092500 0.627690
0.093000 0.628519
0.093500 0.629270
0.094000 0.629929
0.094500 0.630494
0.095000 0.630983
0.095500 0.631423
0.096000 0.631850
0.096500 0.632296
0.097000 0.632782
0.097500 0.633311
0.098000 0.633871
0.098500 0.634434
0.099000 0.634963
0.099500 0.635428
0.100000 0.635808
0.100500 0.636097
0.101000 0.636307
0.101500 0.636460
0.102000 0.636583
0.102500 0.636699
0.103000 0.636823
0.103500 0.636957
0.104000 0.637090
0.104500 0.637212
0.105000 0.637311
0.105500 0.637388
0.106000 0.637456
0.106500 0.637541
0.107000 0.637675
0.107500 0.637892
0.108000 0.638213
0.108500 0.638646
0.109000 0.639174
0.109500 0.639768
0.110000 0.640385
0.110500 0.640981
0.111000 0.641522
0.111500 0.641993
0.112000 0.642398
0.112500 0.642763
0.113000 0.643126
0.113500 0.643529
0.114000 0.644007
0.114500 0.644580
0.115000 0.645252
0.115500 0.646007
0.116000 0.646819
0.116500 0.647660
0.117000 0.648506
0.117500 0.649346
0.118000 0.650181
0.118500 0.651023
0.119000 0.651887
0.119500 0.652786
0.120000 0.653720
0.120500 0.654679
0.121000 0.655639
0.121500 0.656568
0.122000 0.657438
0.122500 0.658228
0.123000 0.658929
0.123500 0.659549
0.124000 0.660108
0.124500 0.660629
0.125000 0.661130
0.125500 0.661620
0.126000 0.662091
0.126500 0.662522
0.127000 0.662887
0.127500 0.663157
0.128000 0.663317
0.128500 0.663366
0.129000 0.663324
0.129500 0.663226
0.130000 0.663115
0.130500 0.663035
0.131000 0.663015
0.131500 0.663072
0.132000 0.663200
0.132500 0.663381
0.133000 0.663588
0.133500 0.663796
0.134000 0.663992
0.134500 0.664177
0.135000 0.664366
0.135500 0.664587
0.136000 0.664869
0.136500 0.665235
0.137000 0.665696
0.137500 0.666243
0.138000 0.666854
0.138500 0.667499
0.139000 0.668147
0.139500 0.668775
0.140000 0.669380
0.140500 0.669973
0.141000 0.670582
0.141500 0.671243
0.142000 0.671986
0.142500 0.672835
0.143000 0.673793
0.143500 0.674846
0.144000 0.675965
0.144500 0.677114
0.145000 0.678256
0.145500 0.679367
0.146000 0.680435
0.146500 0.681459
0.147000 0.682449
0.147500 0.683415
0.148000 0.684359
0.148500 0.685273
0.149000 0.686136
0.149500 0.686917
0.150000 0.687584
0.150500 0.688115
0.151000 0.688501
0.151500 0.688754
0.152000 0.688903
0.152500 0.688989
0.153000 0.689054
0.153500 0.689133
0.154000 0.689245
0.154500 0.689390
0.155000 0.689551
0.155500 0.689700
0.156000 0.689813
0.156500 0.689871
0.157000 0.689874
0.157500 0.689839
0.158000 0.689797
0.158500 0.689785
0.159000 0.689839
0.159500 0.689980
0.160000 0.690215
0.160500 0.690532
0.161000 0.690907
0.161500 0.691311
0.162000 0.691722
0.162500 0.692131
0.163000 0.692549
0.163500 0.693002
0.164000 0.693526
0.164500 0.694156
0.165000 0.694921
0.165500 0.695828
0.166000 0.696866
0.166500 0.698005
0.167000 0.699201
0.167500 0.700408
0.168000 0.701591
0.168500 0.702727
0.169000 0.703813
0.169500 0.704861
0.170000 0.705893
0.170500 0.706930
0.171000 0.707986
0.171500 0.709061
0.172000 0.710142
0.172500 0.711207
0.173000 0.712233
0.173500 0.713206
0.174000 0.714126
0.174500 0.715009
0.175000 0.715885
0.175500 0.716789
0.176000 0.717756
0.176500 0.718804
0.177000 0.719935
0.177500 0.721128
0.178000 0.722348
0.178500 0.723553
0.179000 0.724702
0.179500 0.725770
0.180000 0.726747
0.180500 0.727642
0.181000 0.728478
0.181500 0.729280
0.182000 0.730068
0.182500 0.730847
0.183000 0.731608
0.183500 0.732324
0.184000 0.732965
0.184500 0.733500
0.185000 0.733912
0.185500 0.734202
0.186000 0.734392
0.186500 0.734519
0.187000 0.734626
0.187500 0.734752
0.188000 0.734923
0.188500 0.735148
0.189000 0.735414
0.189500 0.735697
0.190000 0.735967
0.190500 0.736200
0.191000 0.736383
0.191500 0.736519
0.192000 0.736622
0.192500 0.736714
0.193000 0.736816
0.193500 0.736936
0.194000 0.737072
0.194500 0.737206
0.195000 0.737312
0.195500 0.737366
0.196000 0.737354
0.196500 0.737278
0.197000 0.737161
0.197500 0.737041
0.198000 0.736966
0.198500 0.736979
0.199000 0.737110
0.199500 0.737371
0.200000 0.737748
0.200500 0.738280
0.201000 0.738835
0.201500 0.739380
0.202000 0.739899
0.202500 0.740393
0.203000 0.740876
0.203500 0.741368
0.204000 0.741887
0.204500 0.742445
0.205000 0.743045
0.205500 0.743684
0.206000 0.744353
0.206500 0.745042
0.207000 0.745745
0.207500 0.746460
0.208000 0.747190
0.208500 0.747943
0.209000 0.748725
0.209500 0.749541
0.210000 0.750392
0.210500 0.751270
0.211000 0.752164
0.211500 0.753060
0.212000 0.753941
0.212500 0.754792
0.213000 0.755602
0.213500 0.756362
0.214000 0.757072
0.214500 0.757731
0.215000 0.758342
0.215500 0.758910
0.216000 0.759440
0.216500 0.759937
0.217000 0.760405
0.217500 0.760850
0.218000 0.761277
0.218500 0.761691
0.219000 0.762099
0.219500 0.762508
0.220000 0.762922
0.220500 0.763346
0.221000 0.763783
0.221500 0.764234
0.222000 0.764697
0.222500 0.765169
0.223000 0.765646
0.223500 0.766124
0.224000 0.766599
0.224500 0.767067
0.225000 0.767525
0.225500 0.767971
0.226000 0.768403
0.226500 0.768821
0.227000 0.769223
0.227500 0.769608
0.228000 0.769977
0.228500 0.770328
0.229000 0.770662
0.229500 0.770979
0.230000 0.771281
0.230500 0.771568
0.231000 0.771843
0.231500 0.772107
0.232000 0.772364
0.232500 0.772614
0.233000 0.772861
0.233500 0.773107
0.234000 0.773354
0.234500 0.773604
0.235000 0.773859
0.235500 0.774121
0.236000 0.774392
0.236500 0.774674
0.237000 0.774969
0.237500 0.775279
0.238000 0.775606
0.238500 0.775951
0.239000 0.776316
0.239500 0.776701
0.240000 0.777108
0.240500 0.777536
0.241000 0.777986
0.241500 0.778458
0.242000 0.778952
0.242500 0.779467
0.243000 0.780002
0.243500 0.780557
0.244000 0.781130
0.244500 0.781720
0.245000 0.782326
0.245500 0.782944
0.246000 0.783575
0.246500 0.784215
0.247000 0.784862
0.247500 0.785515
0.248000 0.786172
0.248500 0.786832
0.249000 0.787491
0.249500 0.788149
0.250000 0.788804
0.250500 0.789454
0.251000 0.790099
0.251500 0.790736
0.252000 0.791365
0.252500 0.791985
0.253000 0.792594
0.253500 0.793192
0.254000 0.793778
0.254500 0.794352
0.255000 0.794912
0.255500 0.795459
0.256000 0.795991
0.256500 0.796510
0.257000 0.797013
0.257500 0.797503
0.258000 0.797977
0.258500 0.798437
0.259000 0.798883
0.259500 0.799314
0.260000 0.799731
0.260500 0.800135
0.261000 0.800525
0.261500 0.800903
0.262000 0.801268
0.262500 0.801621
0.263000 0.801964
0.263500 0.802295
0.264000 0.802617
0.264500 0.802930
0.265000 0.803233
0.265500 0.803529
0.266000 0.803817
0.266500 0.804098
0.267000 0.804372
0.267500 0.804641
0.268000 0.804903
0.268500 0.805161
0.269000 0.805414
0.269500 0.805663
0.270000 0.805908
0.270500 0.806149
0.271000 0.806387
0.271500 0.806622
0.272000 0.806854
0.272500 0.807083
0.273000 0.807310
0.273500 0.807535
0.274000 0.807758
0.274500 0.807979
0.275000 0.808198
0.275500 0.808415
0.276000 0.808631
0.276500 0.808845
0.277000 0.809057
0.277500 0.809267
0.278000 0.809476
0.278500 0.809683
0.279000 0.809889
0.279500 0.810092
0.280000 0.810293
0.280500 0.810493
0.281000 0.810690
0.281500 0.810886
0.282000 0.811079
0.282500 0.811270
0.283000 0.811460
0.283500 0.811647
0.284000 0.811832
0.284500 0.812016
0.285000 0.812198
0.285500 0.812378
0.286000 0.812558
0.286500 0.812735
0.287000 0.812912
0.287500 0.813088
0.288000 0.813263
0.288500 0.813437
0.289000 0.813611
0.289500 0.813785
0.290000 0.813959
0.290500 0.814133
0.291000 0.814307
0.291500 0.814481
0.292000 0.814656
0.292500 0.814832
0.293000 0.815009
0.293500 0.815187
0.294000 0.815366
0.294500 0.815547
0.295000 0.815729
0.295500 0.815914
0.296000 0.816100
0.296500 0.816288
0.297000 0.816479
0.297500 0.816672
0.298000 0.816868
0.298500 0.817067
0.299000 0.817269
0.299500 0.817475
0.300000 0.817683
0.300500 0.817896
0.301000 0.818112
0.301500 0.818332
0.302000 0.818556
0.302500 0.818784
0.303000 0.819016
0.303500 0.819253
0.304000 0.819494
0.304500 0.819739
0.305000 0.819990
0.305500 0.820245
0.306000 0.820504
0.306500 0.820769
0.307000 0.821038
0.307500 0.821312
0.308000 0.821590
0.308500 0.821874
0.309000 0.822162
0.309500 0.822455
0.310000 0.822753
0.310500 0.823055
0.311000 0.823362
0.311500 0.823674
0.312000 0.823990
0.312500 0.824310
0.313000 0.824634
0.313500 0.824963
0.314000 0.825296
0.314500 0.825633
0.315000 0.825974
0.315500 0.826319
0.316000 0.826667
0.316500 0.827019
0.317000 0.827374
0.317500 0.827733
0.318000 0.828096
0.318500 0.828461
0.319000 0.828830
0.319500 0.829202
0.320000 0.829577
0.320500 0.829954
0.321000 0.830335
0.321500 0.830719
0.322000 0.831105
0.322500 0.831494
0.323000 0.831886
0.323500 0.832280
0.324000 0.832677
0.324500 0.833077
0.325000 0.833479
0.325500 0.833883
0.326000 0.834291
0.326500 0.834700
0.327000 0.835113
0.327500 0.835527
0.328000 0.835945
0.328500 0.836364
0.329000 0.836787
0.329500 0.837211
0.330000 0.837638
0.330500 0.838068
0.331000 0.838500
0.331500 0.838934
0.332000 0.839371
0.332500 0.839810
0.333000 0.840252
0.333500 0.840696
0.334000 0.841142
0.334500 0.841591
0.335000 0.842042
0.335500 0.842495
0.336000 0.842950
0.336500 0.843408
0.337000 0.843868
0.337500 0.844330
0.338000 0.844794
0.338500 0.845260
0.339000 0.845728
0.339500 0.846198
0.340000 0.846670
0.340500 0.847143
0.341000 0.847618
0.341500 0.848095
0.342000 0.848573
0.342500 0.849053
0.343000 0.849534
0.343500 0.850016
0.344000 0.850499
0.344500 0.850983
0.345000 0.851468
0.345500 0.851954
0.346000 0.852441
0.346500 0.852928
0.347000 0.853415
0.347500 0.853902
0.348000 0.854390
0.348500 0.854878
0.349000 0.855365
0.349500 0.855852
0.350000 0.856338
0.350500 0.856824
0.351000 0.857309
0.351500 0.857793
0.352000 0.858276
0.352500 0.858758
0.353000 0.859239
0.353500 0.859718
0.354000 0.860196
0.354500 0.860672
0.355000 0.861146
0.355500 0.861618
0.356000 0.862088
0.356500 0.862556
0.357000 0.863022
0.357500 0.863486
0.358000 0.863947
0.358500 0.864406
0.359000 0.864862
0.359500 0.865316
0.360000 0.865767
0.360500 0.866215
0.361000 0.866661
0.361500 0.867104
0.362000 0.867544
0.362500 0.867982
0.363000 0.868416
0.363500 0.868848
0.364000 0.869277
0.364500 0.869703
0.365000 0.870126
0.365500 0.870546
0.366000 0.870964
0.366500 0.871378
0.367000 0.871790
0.367500 0.872198
0.368000 0.872604
0.368500 0.873007
0.369000 0.873407
0.369500 0.873804
0.370000 0.874198
0.370500 0.874590
0.371000 0.874978
0.371500 0.875364
0.372000 0.875746
0.372500 0.876126
0.373000 0.876503
0.373500 0.876878
0.374000 0.877249
0.374500 0.877617
0.375000 0.877983
0.375500 0.878346
0.376000 0.878706
0.376500 0.879063
0.377000 0.879418
0.377500 0.879769
0.378000 0.880118
0.378500 0.880464
0.379000 0.880808
0.379500 0.881148
0.380000 0.881486
0.380500 0.881821
0.381000 0.882153
0.381500 0.882483
0.382000 0.882810
0.382500 0.883134
0.383000 0.883456
0.383500 0.883774
0.384000 0.884091
0.384500 0.884404
0.385000 0.884715
0.385500 0.885024
0.386000 0.885330
0.386500 0.885633
0.387000 0.885934
0.387500 0.886232
0.388000 0.886528
0.388500 0.886822
0.389000 0.887113
0.389500 0.887401
0.390000 0.887688
0.390500 0.887972
0.391000 0.888253
0.391500 0.888532
0.392000 0.888809
0.392500 0.889084
0.393000 0.889357
0.393500 0.889627
0.394000 0.889895
0.394500 0.890161
0.395000 0.890425
0.395500 0.890687
0.396000 0.890947
0.396500 0.891205
0.397000 0.891461
0.397500 0.891714
0.398000 0.891966
0.398500 0.892217
0.399000 0.892465
0.399500 0.892711
0.400000 0.892956
0.400500 0.893199
0.401000 0.893440
0.401500 0.893679
0.402000 0.893917
0.402500 0.894153
0.403000 0.894388
0.403500 0.894621
0.404000 0.894853
0.404500 0.895083
0.405000 0.895312
0.405500 0.895539
0.406000 0.895765
0.406500 0.895990
0.407000 0.896214
0.407500 0.896436
0.408000 0.896657
0.408500 0.896877
0.409000 0.897096
0.409500 0.897313
0.410000 0.897530
0.410500 0.897746
0.411000 0.897961
0.411500 0.898175
0.412000 0.898388
0.412500 0.898600
0.413000 0.898811
0.413500 0.899022
0.414000 0.899232
0.414500 0.899441
0.415000 0.899650
0.415500 0.899858
0.416000 0.900065
0.416500 0.900272
0.417000 0.900479
0.417500 0.900685
0.418000 0.900891
0.418500 0.901096
0.419000 0.901302
0.419500 0.901507
0.420000 0.901711
0.420500 0.901916
0.421000 0.902120
0.421500 0.902325
0.422000 0.902529
0.422500 0.902733
0.423000 0.902938
0.423500 0.903142
0.424000 0.903347
0.424500 0.903552
0.425000 0.903757
0.425500 0.903963
0.426000 0.904169
0.426500 0.904375
0.427000 0.904581
0.427500 0.904788
0.428000 0.904996
0.428500 0.905204
0.429000 0.905413
0.429500 0.905622
0.430000 0.905832
0.430500 0.906042
0.431000 0.906254
0.431500 0.906466
0.432000 0.906679
0.432500 0.906893
0.433000 0.907107
0.433500 0.907323
0.434000 0.907539
0.434500 0.907756
0.435000 0.907975
0.435500 0.908194
0.436000 0.908414
0.436500 0.908636
0.437000 0.908858
0.437500 0.909081
0.438000 0.909306
0.438500 0.909532
0.439000 0.909758
0.439500 0.909986
0.440000 0.910215
0.440500 0.910445
0.441000 0.910677
0.441500 0.910909
0.442000 0.911143
0.442500 0.911377
0.443000 0.911613
0.443500 0.911850
0.444000 0.912088
0.444500 0.912327
0.445000 0.912567
0.445500 0.912809
0.446000 0.913051
0.446500 0.913295
0.447000 0.913539
0.447500 0.913785
0.448000 0.914031
0.448500 0.914279
0.449000 0.914527
0.449500 0.914777
0.450000 0.915027
0.450500 0.915278
0.451000 0.915530
0.451500 0.915783
0.452000 0.916037
0.452500 0.916291
0.453000 0.916547
0.453500 0.916802
0.454000 0.917059
0.454500 0.917316
0.455000 0.917574
0.455500 0.917832
0.456000 0.918090
0.456500 0.918349
0.457000 0.918609
0.457500 0.918869
0.458000 0.919129
0.458500 0.919390
0.459000 0.919650
0.459500 0.919911
0.460000 0.920172
0.460500 0.920434
0.461000 0.920695
0.461500 0.920956
0.462000 0.921218
0.462500 0.921479
0.463000 0.921740
0.463500 0.922002
0.464000 0.922263
0.464500 0.922524
0.465000 0.922784
0.465500 0.923045
0.466000 0.923305
0.466500 0.923565
0.467000 0.923824
0.467500 0.924083
0.468000 0.924342
0.468500 0.924601
0.469000 0.924859
0.469500 0.925116
0.470000 0.925373
0.470500 0.925630
0.471000 0.925886
0.471500 0.926141
0.472000 0.926396
0.472500 0.926650
0.473000 0.926904
0.473500 0.927157
0.474000 0.927410
0.474500 0.927662
0.475000 0.927913
0.475500 0.928164
0.476000 0.928414
0.476500 0.928663
0.477000 0.928912
0.477500 0.929160
0.478000 0.929407
0.478500 0.929654
0.479000 0.929900
0.479500 0.930145
0.480000 0.930390
0.480500 0.930634
0.481000 0.930877
0.481500 0.931120
0.482000 0.931362
0.482500 0.931603
0.483000 0.931844
0.483500 0.932084
0.484000 0.932324
0.484500 0.932562
0.485000 0.932800
0.485500 0.933038
0.486000 0.933275
0.486500 0.933511
0.487000 0.933746
0.487500 0.933981
0.488000 0.934216
0.488500 0.934449
0.489000 0.934682
0.489500 0.934915
0.490000 0.935147
0.490500 0.935378
0.491000 0.935609
0.491500 0.935839
0.492000 0.936068
0.492500 0.936297
0.493000 0.936526
0.493500 0.936753
0.494000 0.936981
0.494500 0.937207
0.495000 0.937433
0.495500 0.937659
0.496000 0.937884
0.496500 0.938108
0.497000 0.938332
0.497500 0.938555
0.498000 0.938778
0.498500 0.939000
0.499000 0.939222
0.499500 0.939443
0.500000 0.939663
0.509900 0.944269
0.519800 0.948623
0.529700 0.952566
0.539600 0.955950
0.549500 0.958773
0.559400 0.961189
0.569300 0.963403
0.579200 0.965582
0.589100 0.967838
0.599000 0.970233
0.608900 0.972805
0.618800 0.975611
0.628700 0.978706
0.638600 0.982055
0.648500 0.985497
0.658400 0.988830
0.668300 0.991916
0.678200 0.994695
0.688100 0.997112
0.698000 0.999104
0.707900 1.000692
0.717800 1.002041
0.727700 1.003419
0.737600 1.005080
0.747500 1.007188
0.757400 1.009765
0.767300 1.012673
0.777200 1.015656
0.787100 1.018481
0.797000 1.021060
0.806900 1.023455
0.816800 1.025795
0.826700 1.028190
0.836600 1.030710
0.846500 1.033394
0.856400 1.036228
0.866300 1.039134
0.876200 1.042013
0.886100 1.044797
0.896000 1.047473
0.905900 1.050059
0.915800 1.052614
0.925700 1.055242
0.935600 1.058067
0.945500 1.061182
0.955400 1.064618
0.965300 1.068321
0.975200 1.072160
0.985100 1.075995
0.995000 1.079753
1.004900 1.083433
1.014800 1.087053
1.024700 1.090627
1.034600 1.094176
1.044500 1.097722
1.054400 1.101291
1.064300 1.104930
1.074200 1.108686
1.084100 1.112533
1.094000 1.116344
1.103900 1.119957
1.113800 1.123261
1.123700 1.126197
1.133600 1.128713
1.143500 1.130758
1.153400 1.132322
1.163300 1.133457
1.173200 1.134219
1.183100 1.134628
1.193000 1.134716
1.202900 1.134601
1.212800 1.134454
1.222700 1.134415
1.232600 1.134551
1.242500 1.134872
1.252400 1.135342
1.262300 1.135862
1.272200 1.136259
1.282100 1.136342
1.292000 1.136038
1.301900 1.135461
1.311800 1.134872
1.321700 1.134571
1.331600 1.134815
1.341500 1.135748
1.351400 1.137386
1.361300 1.139653
1.371200 1.142384
1.381100 1.145304
1.391000 1.148074
1.400900 1.150437
1.410800 1.152356
1.420700 1.153993
1.430600 1.155574
1.440500 1.157281
1.450400 1.159214
1.460300 1.161373
1.470200 1.163699
1.480100 1.166173
1.490000 1.168875
1.499900 1.171920
1.509800 1.175300
1.519700 1.178804
1.529600 1.182120
1.539500 1.184998
1.549400 1.187356
1.559300 1.189299
1.569200 1.191042
1.579100 1.192778
1.589000 1.194633
1.598900 1.196711
1.608800 1.199095
1.618700 1.201750
1.628600 1.204503
1.638500 1.207205
1.648400 1.209877
1.658300 1.212672
1.668200 1.215745
1.678100 1.219168
1.688000 1.222908
1.697900 1.226899
1.707800 1.231112
1.717700 1.235526
1.727600 1.240083
1.737500 1.244732
1.747400 1.249488
1.757300 1.254397
1.767200 1.259470
1.777100 1.264662
1.787000 1.269901
1.796900 1.275144
1.806800 1.280404
1.816700 1.285722
1.826600 1.291158
1.836500 1.296787
1.846400 1.302685
1.856300 1.308938
1.866200 1.315630
1.876100 1.322791
1.886000 1.330352
1.895900 1.338127
1.905800 1.345771
1.915700 1.352803
1.925600 1.358720
1.935500 1.363129
1.945400 1.365877
1.955300 1.367129
1.965200 1.367254
1.975100 1.366623
1.985000 1.365523
1.994900 1.364223
2.004800 1.363044
2.014700 1.362359
2.024600 1.362490
2.034500 1.363609
2.044400 1.365729
2.054300 1.368729
2.064200 1.372362
2.074100 1.376297
2.084000 1.380207
2.093900 1.383872
2.103800 1.387235
2.113700 1.390381
2.123600 1.393448
2.133500 1.396493
2.143400 1.399424
2.153300 1.402104
2.163200 1.404528
2.173100 1.406857
2.183000 1.409283
2.192900 1.411902
2.202800 1.414711
2.212700 1.417629
2.222600 1.420484
2.232500 1.423018
2.242400 1.424986
2.252300 1.426300
2.262200 1.427032
2.272100 1.427242
2.282000 1.426844
2.291900 1.425686
2.301800 1.423726
2.311700 1.421061
2.321600 1.417851
2.331500 1.414266
2.341400 1.410465
2.351300 1.406554
2.361200 1.402595
2.371100 1.398623
2.381000 1.394617
2.390900 1.390442
2.400800 1.385863
2.410700 1.380633
2.420600 1.374592
2.430500 1.367716
2.440400 1.360150
2.450300 1.352212
2.460200 1.344273
2.470100 1.336567
2.480000 1.329151
2.489900 1.321966
2.499800 1.314915
2.509700 1.307881
2.519600 1.300738
2.529500 1.293377
2.539400 1.285683
2.549300 1.277501
2.559200 1.268645
2.569100 1.258976
2.579000 1.248502
2.588900 1.237422
2.598800 1.226063
2.608700 1.214792
2.618600 1.203879
2.628500 1.193359
2.638400 1.183042
2.648300 1.172733
2.658200 1.162406
2.668100 1.152160
2.678000 1.142079
2.687900 1.132164
2.697800 1.122369
2.707700 1.112635
2.717600 1.102910
2.727500 1.093182
2.737400 1.083489
2.747300 1.073928
2.757200 1.064619
2.767100 1.055632
2.777000 1.046924
2.786900 1.038353
2.796800 1.029746
2.806700 1.020989
2.816600 1.012094
2.826500 1.003209
2.836400 0.994582
2.846300 0.986473
2.856200 0.979014
2.866100 0.972153
2.876000 0.965724
2.885900 0.959565
2.895800 0.953600
2.905700 0.947839
2.915600 0.942329
2.925500 0.937097
2.935400 0.932099
2.945300 0.927221
2.955200 0.922324
2.965100 0.917322
2.975000 0.912241
2.984900 0.907171
2.994800 0.902170
3.004700 0.897248
3.014600 0.892423
3.024500 0.887743
3.034400 0.883247
3.044300 0.878912
3.054200 0.874659
3.064100 0.870410
3.074000 0.866118
3.083900 0.861749
3.093800 0.857261
3.103700 0.852633
3.113600 0.847893
3.123500 0.843118
3.133400 0.838434
3.143300 0.833983
3.153200 0.829837
3.163100 0.825932
3.173000 0.822082
3.182900 0.818105
3.192800 0.813934
3.202700 0.809629
3.212600 0.805310
3.222500 0.801088
3.232400 0.797041
3.242300 0.793220
3.252200 0.789612
3.262100 0.786112
3.272000 0.782572
3.281900 0.778903
3.291800 0.775149
3.301700 0.771445
3.311600 0.767912
3.321500 0.764583
3.331400 0.761453
3.341300 0.758558
3.351200 0.755957
3.361100 0.753651
3.371000 0.751542
3.380900 0.749490
3.390800 0.747373
3.400700 0.745115
3.410600 0.742668
3.420500 0.740008
3.430400 0.737141
3.440300 0.734109
3.450200 0.730974
3.460100 0.727789
3.470000 0.724590
3.479900 0.721413
3.489800 0.718322
3.499700 0.715374
3.509600 0.712571
3.519500 0.709849
3.529400 0.707149
3.539300 0.704468
3.549200 0.701854
3.559100 0.699361
3.569000 0.697024
3.578900 0.694850
3.588800 0.692833
3.598700 0.690969
3.608600 0.689290
3.618500 0.687845
3.628400 0.686666
3.638300 0.685734
3.648200 0.684993
3.658100 0.684388
3.668000 0.683880
3.677900 0.683411
3.687800 0.682872
3.697700 0.682138
3.707600 0.681136
3.717500 0.679859
3.727400 0.678351
3.737300 0.676671
3.747200 0.674857
3.757100 0.672903
3.767000 0.670788
3.776900 0.668547
3.786800 0.666306
3.796700 0.664225
3.806600 0.662425
3.816500 0.660925
3.826400 0.659655
3.836300 0.658511
3.846200 0.657404
3.856100 0.656294
3.866000 0.655158
3.875900 0.653957
3.885800 0.652640
3.895700 0.651199
3.905600 0.649705
3.915500 0.648287
3.925400 0.647084
3.935300 0.646178
3.945200 0.645570
3.955100 0.645188
3.965000 0.644909
3.974900 0.644593
3.984800 0.644140
3.994700 0.643539
4.004600 0.642859
4.014500 0.642205
4.024400 0.641658
4.034300 0.641267
4.044200 0.641059
4.054100 0.641019
4.064000 0.641060
4.073900 0.641053
4.083800 0.640879
4.093700 0.640461
4.103600 0.639753
4.113500 0.638721
4.123400 0.637354
4.133300 0.635683
4.143200 0.633809
4.153100 0.631899
4.163000 0.630123
4.172900 0.628593
4.182800 0.627316
4.192700 0.626223
4.202600 0.625217
4.212500 0.624234
4.222400 0.623266
4.232300 0.622328
4.242200 0.621424
4.252100 0.620538
4.262000 0.619650
4.271900 0.618743
4.281800 0.617829
4.291700 0.616922
4.301600 0.616005
4.311500 0.615014
4.321400 0.613873
4.331300 0.612546
4.341200 0.611050
4.351100 0.609450
4.361000 0.607822
4.370900 0.606223
4.380800 0.604662
4.390700 0.603085
4.400600 0.601372
4.410500 0.599424
4.420400 0.597257
4.430300 0.595027
4.440200 0.592931
4.450100 0.591087
4.460000 0.589486
4.469900 0.588031
4.479800 0.586610
4.489700 0.585144
4.499600 0.583617
4.509500 0.582065
4.519400 0.580537
4.529300 0.579064
4.539200 0.577648
4.549100 0.576274
4.559000 0.574941
4.568900 0.573669
4.578800 0.572464
4.588700 0.571303
4.598600 0.570156
4.608500 0.569016
4.618400 0.567912
4.628300 0.566877
4.638200 0.565903
4.648100 0.564952
4.658000 0.564007
4.667900 0.563112
4.677800 0.562337
4.687700 0.561726
4.697600 0.561270
4.707500 0.560922
4.717400 0.560619
4.727300 0.560312
4.737200 0.559968
4.747100 0.559563
4.757000 0.559100
4.766900 0.558624
4.776800 0.558192
4.786700 0.557840
4.796600 0.557563
4.806500 0.557339
4.816400 0.557146
4.826300 0.556972
4.836200 0.556792
4.846100 0.556549
4.856000 0.556172
4.865900 0.555616
4.875800 0.554855
4.885700 0.553864
4.895600 0.552618
4.905500 0.551133
4.915400 0.549491
4.925300 0.547813
4.935200 0.546223
4.945100 0.544827
4.955000 0.543689
4.964900 0.542808
4.974800 0.542120
4.984700 0.541518
4.994600 0.540894
5.004500 0.540197
5.014400 0.539467
5.024300 0.538793
5.034200 0.538230
5.044100 0.537767
5.054000 0.537369
5.063900 0.537025
5.073800 0.536743
5.083700 0.536532
5.093600 0.536378
5.103500 0.536249
5.113400 0.536106
5.123300 0.535926
5.133200 0.535725
5.143100 0.535540
5.153000 0.535399
5.162900 0.535293
5.172800 0.535181
5.182700 0.535015
5.192600 0.534767
5.202500 0.534448
5.212400 0.534108
5.222300 0.533818
5.232200 0.533641
5.242100 0.533603
5.252000 0.533668
5.261900 0.533757
5.271800 0.533784
5.281700 0.533686
5.291600 0.533428
5.301500 0.532995
5.311400 0.532406
5.321300 0.531722
5.331200 0.531013
5.341100 0.530310
5.351000 0.529621
5.360900 0.528961
5.370800 0.528343
5.380700 0.527755
5.390600 0.527174
5.400500 0.526601
5.410400 0.526071
5.420300 0.525629
5.430200 0.525284
5.440100 0.525014
5.450000 0.524807
5.459900 0.524679
5.469800 0.524654
5.479700 0.524734
5.489600 0.524903
5.499500 0.525133
5.509400 0.525389
5.519300 0.525630
5.529200 0.525808
5.539100 0.525869
5.549000 0.525752
5.558900 0.525426
5.568800 0.524950
5.578700 0.524448
5.588600 0.524032
5.598500 0.523721
5.608400 0.523466
5.618300 0.523211
5.628200 0.522950
5.638100 0.522709
5.648000 0.522498
5.657900 0.522274
5.667800 0.521965
5.677700 0.521508
5.687600 0.520869
5.697500 0.520045
5.707400 0.519071
5.717300 0.518021
5.727200 0.516976
5.737100 0.515981
5.747000 0.515043
5.756900 0.514144
5.766800 0.513251
5.776700 0.512325
5.786600 0.511333
5.796500 0.510271
5.806400 0.509160
5.816300 0.508016
5.826200 0.506845
5.836100 0.505665
5.846000 0.504516
5.855900 0.503428
5.865800 0.502386
5.875700 0.501354
5.885600 0.500310
5.895500 0.499267
5.905400 0.498246
5.915300 0.497253
5.925200 0.496262
5.935100 0.495246
5.945000 0.494221
5.954900 0.493255
5.964800 0.492421
5.974700 0.491748
5.984600 0.491208
5.994500 0.490724
6.004400 0.490193
6.014300 0.489528
6.024200 0.488685
6.034100 0.487646
6.044000 0.486419
6.053900 0.485044
6.063800 0.483593
6.073700 0.482141
6.083600 0.480733
6.093500 0.479394
6.103400 0.478173
6.113300 0.477139
6.123200 0.476322
6.133100 0.475673
6.143000 0.475093
6.152900 0.474496
6.162800 0.473861
6.172700 0.473235
6.182600 0.472679
6.192500 0.472206
6.202400 0.471747
6.212300 0.471203
6.222200 0.470517
6.232100 0.469678
6.242000 0.468668
6.251900 0.467439
6.261800 0.465966
6.271700 0.464291
6.281600 0.462514
6.291500 0.460735
6.301400 0.459027
6.311300 0.457439
6.321200 0.456011
6.331100 0.454798
6.341000 0.453835
6.350900 0.453102
6.360800 0.452531
6.370700 0.452046
6.380600 0.451575
6.390500 0.451033
6.400400 0.450321
6.410300 0.449379
6.420200 0.448210
6.430100 0.446873
6.440000 0.445454
6.449900 0.444048
6.459800 0.442729
6.469700 0.441545
6.479600 0.440522
6.489500 0.439660
6.499400 0.438911
6.509300 0.438164
6.519200 0.437284
6.529100 0.436197
6.539000 0.434935
6.548900 0.433616
6.558800 0.432348
6.568700 0.431178
6.578600 0.430089
6.588500 0.429042
6.598400 0.428025
6.608300 0.427063
6.618200 0.426200
6.628100 0.425477
6.638000 0.424916
6.647900 0.424487
6.657800 0.424102
6.667700 0.423640
6.677600 0.422995
6.687500 0.422120
6.697400 0.421052
6.707300 0.419871
6.717200 0.418663
6.727100 0.417514
6.737000 0.416508
6.746900 0.415687
6.756800 0.415000
6.766700 0.414310
6.776600 0.413441
6.786500 0.412268
6.796400 0.410760
6.806300 0.408969
6.816200 0.407002
6.826100 0.405002
6.836000 0.403121
6.845900 0.401457
6.855800 0.400016
6.865700 0.398730
6.875600 0.397517
6.885500 0.396310
6.895400 0.395057
6.905300 0.393724
6.915200 0.392291
6.925100 0.390777
6.935000 0.389231
6.944900 0.387700
6.954800 0.386206
6.964700 0.384749
6.974600 0.383325
6.984500 0.381935
6.994400 0.380586
7.004300 0.379289
7.014200 0.378040
7.024100 0.376812
7.034000 0.375564
7.043900 0.374262
7.053800 0.372902
7.063700 0.371533
7.073600 0.370237
7.083500 0.369082
7.093400 0.368082
7.103300 0.367198
7.113200 0.366361
7.123100 0.365501
7.133000 0.364563
7.142900 0.363532
7.152800 0.362426
7.162700 0.361284
7.172600 0.360147
7.182500 0.359053
7.192400 0.358037
7.202300 0.357126
7.212200 0.356328
7.222100 0.355651
7.232000 0.355115
7.241900 0.354737
7.251800 0.354485
7.261700 0.354279
7.271600 0.354038
7.281500 0.353728
7.291400 0.353374
7.301300 0.353035
7.311200 0.352770
7.321100 0.352587
7.331000 0.352422
7.340900 0.352185
7.350800 0.351820
7.360700 0.351340
7.370600 0.350810
7.380500 0.350300
7.390400 0.349854
7.400300 0.349492
7.410200 0.349227
7.420100 0.349058
7.430000 0.348965
7.439900 0.348919
7.449800 0.348889
7.459700 0.348851
7.469600 0.348762
7.479500 0.348551
7.489400 0.348175
7.499300 0.347651
7.509200 0.347034
7.519100 0.346387
7.529000 0.345767
7.538900 0.345229
7.548800 0.344817
7.558700 0.344541
7.568600 0.344379
7.578500 0.344311
7.588400 0.344335
7.598300 0.344453
7.608200 0.344663
7.618100 0.344956
7.628000 0.345316
7.637900 0.345710
7.647800 0.346088
7.657700 0.346402
7.667600 0.346632
7.677500 0.346791
7.687400 0.346914
7.697300 0.347037
7.707200 0.347182
7.717100 0.347352
7.727000 0.347531
7.736900 0.347704
7.746800 0.347869
7.756700 0.348057
7.766600 0.348324
7.776500 0.348734
7.786400 0.349315
7.796300 0.350038
7.806200 0.350809
7.816100 0.351519
7.826000 0.352111
7.835900 0.352595
7.845800 0.353015
7.855700 0.353403
7.865600 0.353773
7.875500 0.354133
7.885400 0.354491
7.895300 0.354857
7.905200 0.355238
7.915100 0.355632
7.925000 0.356017
7.934900 0.356340
7.944800 0.356534
7.954700 0.356531
7.964600 0.356277
7.974500 0.355755
7.984400 0.354998
7.994300 0.354075
8.004200 0.353062
8.014100 0.352010
8.024000 0.350922
8.033900 0.349762
8.043800 0.348489
8.053700 0.347112
8.063600 0.345707
8.073500 0.344378
8.083400 0.343210
8.093300 0.342239
8.103200 0.341456
8.113100 0.340836
8.123000 0.340350
8.132900 0.339974
8.142800 0.339678
8.152700 0.339409
8.162600 0.339099
8.172500 0.338712
8.182400 0.338265
8.192300 0.337817
8.202200 0.337422
8.212100 0.337099
8.222000 0.336827
8.231900 0.336564
8.241800 0.336279
8.251700 0.335972
8.261600 0.335659
8.271500 0.335345
8.281400 0.335009
8.291300 0.334622
8.301200 0.334178
8.311100 0.333699
8.321000 0.333212
8.330900 0.332716
8.340800 0.332185
8.350700 0.331584
8.360600 0.330877
8.370500 0.330048
8.380400 0.329123
8.390300 0.328158
8.400200 0.327194
8.410100 0.326213
8.420000 0.325146
8.429900 0.323909
8.439800 0.322474
8.449700 0.320896
8.459600 0.319265
8.469500 0.317642
8.479400 0.316037
8.489300 0.314451
8.499200 0.312895
8.509100 0.311374
8.519000 0.309879
8.528900 0.308397
8.538800 0.306921
8.548700 0.305452
8.558600 0.303991
8.568500 0.302534
8.578400 0.301073
8.588300 0.299603
8.598200 0.298137
8.608100 0.296699
8.618000 0.295290
8.627900 0.293865
8.637800 0.292346
8.647700 0.290680
8.657600 0.288875
8.667500 0.286982
8.677400 0.285040
8.687300 0.283060
8.697200 0.281051
8.707100 0.279019
8.717000 0.276955
8.726900 0.274824
8.736800 0.272586
8.746700 0.270227
8.756600 0.267773
8.766500 0.265286
8.776400 0.262827
8.786300 0.260439
8.796200 0.258147
8.806100 0.255967
8.816000 0.253897
8.825900 0.251918
8.835800 0.250003
8.845700 0.248118
8.855600 0.246230
8.865500 0.244325
8.875400 0.242405
8.885300 0.240484
8.895200 0.238588
8.905100 0.236757
8.915000 0.235023
8.924900 0.233398
8.934800 0.231875
8.944700 0.230434
8.954600 0.229044
8.964500 0.227678
8.974400 0.226332
8.984300 0.225023
8.994200 0.223773
9.004100 0.222583
9.014000 0.221419
9.023900 0.220237
9.033800 0.219001
9.043700 0.217693
9.053600 0.216314
9.063500 0.214882
9.073400 0.213432
9.083300 0.212002
9.093200 0.210614
9.103100 0.209277
9.113000 0.207982
9.122900 0.206709
9.132800 0.205437
9.142700 0.204157
9.152600 0.202866
9.162500 0.201566
9.172400 0.200269
9.182300 0.198998
9.192200 0.197771
9.202100 0.196594
9.212000 0.195460
9.221900 0.194360
9.231800 0.193284
9.241700 0.192203
9.251600 0.191092
9.261500 0.189940
9.271400 0.188764
9.281300 0.187585
9.291200 0.186416
9.301100 0.185264
9.311000 0.184139
9.320900 0.183055
9.330800 0.182024
9.340700 0.181043
9.350600 0.180088
9.360500 0.179128
9.370400 0.178143
9.380300 0.177130
9.390200 0.176099
9.400100 0.175069
9.410000 0.174061
9.419900 0.173099
9.429800 0.172202
9.439700 0.171367
9.449600 0.170562
9.459500 0.169744
9.469400 0.168885
9.479300 0.167980
9.489200 0.167041
9.499100 0.166082
9.509000 0.165110
9.518900 0.164131
9.528800 0.163156
9.538700 0.162192
9.548600 0.161239
9.558500 0.160307
9.568400 0.159420
9.578300 0.158589
9.588200 0.157799
9.598100 0.157007
9.608000 0.156177
9.617900 0.155289
9.627800 0.154340
9.637700 0.153332
9.647600 0.152274
9.657500 0.151185
9.667400 0.150091
9.677300 0.149020
9.687200 0.147998
9.697100 0.147042
9.707000 0.146143
9.716900 0.145278
9.726800 0.144427
9.736700 0.143582
9.746600 0.142730
9.756500 0.141842
9.766400 0.140890
9.776300 0.139866
9.786200 0.138783
9.796100 0.137665
9.806000 0.136535
9.815900 0.135412
9.825800 0.134300
9.835700 0.133208
9.845600 0.132147
9.855500 0.131131
9.865400 0.130160
9.875300 0.129226
9.885200 0.128309
9.895100 0.127387
9.905000 0.126438
9.914900 0.125434
9.924800 0.124345
9.934700 0.123152
9.944600 0.121866
9.954500 0.120518
9.964400 0.119142
9.974300 0.117765
9.984200 0.116404
9.994100 0.115077
10.004000 0.113792
10.013900 0.112547
10.023800 0.111331
10.033700 0.110127
10.043600 0.108930
10.053500 0.107740
10.063400 0.106556
10.073300 0.105368
10.083200 0.104162
10.093100 0.102938
10.103000 0.101715
10.112900 0.100515
10.122800 0.099347
10.132700 0.098209
10.142600 0.097101
10.152500 0.096025
10.162400 0.094982
10.172300 0.093970
10.182200 0.092981
10.192100 0.092012
10.202000 0.091056
10.211900 0.090108
10.221800 0.089169
10.231700 0.088248
10.241600 0.087350
10.251500 0.086468
10.261400 0.085587
10.271300 0.084696
10.281200 0.083795
10.291100 0.082895
10.301000 0.082001
10.310900 0.081105
10.320800 0.080196
10.330700 0.079273
10.340600 0.078345
10.350500 0.077429
10.360400 0.076534
10.370300 0.075661
10.380200 0.074803
10.390100 0.073946
10.400000 0.073078
10.409900 0.072192
10.419800 0.071290
10.429700 0.070375
10.439600 0.069459
10.449500 0.068557
10.459400 0.067682
10.469300 0.066840
10.479200 0.066032
10.489100 0.065254
10.499000 0.064505
10.508900 0.063780
10.518800 0.063070
10.528700 0.062358
10.538600 0.061633
10.548500 0.060891
10.558400 0.060138
10.568300 0.059383
10.578200 0.058633
10.588100 0.057894
10.598000 0.057171
10.607900 0.056472
10.617800 0.055800
10.627700 0.055153
10.637600 0.054522
10.647500 0.053900
10.657400 0.053277
10.667300 0.052644
10.677200 0.051995
10.687100 0.051334
10.697000 0.050674
10.706900 0.050033
10.716800 0.049425
10.726700 0.048852
10.736600 0.048309
10.746500 0.047782
10.756400 0.047261
10.766300 0.046740
10.776200 0.046220
10.786100 0.045704
10.796000 0.045197
10.805900 0.044700
10.815800 0.044211
10.825700 0.043731
10.835600 0.043265
10.845500 0.042815
10.855400 0.042386
10.865300 0.041982
10.875200 0.041606
10.885100 0.041255
10.895000 0.040918
10.904900 0.040581
10.914800 0.040232
10.924700 0.039866
10.934600 0.039483
10.944500 0.039088
10.954400 0.038685
10.964300 0.038276
10.974200 0.037864
10.984100 0.037447
10.994000 0.037027
11.003900 0.036602
11.013800 0.036169
11.023700 0.035730
11.033600 0.035289
11.043500 0.034855
11.053400 0.034436
11.063300 0.034035
11.073200 0.033652
11.083100 0.033281
11.093000 0.032915
11.102900 0.032550
11.112800 0.032185
11.122700 0.031823
11.132600 0.031468
11.142500 0.031122
11.152400 0.030783
11.162300 0.030446
11.172200 0.030109
11.182100 0.029770
11.192000 0.029434
11.201900 0.029105
11.211800 0.028788
11.221700 0.028487
11.231600 0.028202
11.241500 0.027931
11.251400 0.027664
11.261300 0.027392
11.271200 0.027108
11.281100 0.026811
11.291000 0.026507
11.300900 0.026206
11.310800 0.025921
11.320700 0.025659
11.330600 0.025424
11.340500 0.025213
11.350400 0.025016
11.360300 0.024827
11.370200 0.024640
11.380100 0.024457
11.390000 0.024281
11.399900 0.024113
11.409800 0.023951
11.419700 0.023789
11.429600 0.023620
11.439500 0.023440
11.449400 0.023251
11.459300 0.023054
11.469200 0.022851
11.479100 0.022642
11.489000 0.022426
11.498900 0.022204
11.508800 0.021976
11.518700 0.021742
11.528600 0.021507
11.538500 0.021270
11.548400 0.021032
11.558300 0.020789
11.568200 0.020539
11.578100 0.020282
11.588000 0.020023
11.597900 0.019769
11.607800 0.019524
11.617700 0.019292
11.627600 0.019068
11.637500 0.018849
11.647400 0.018637
11.657300 0.018431
11.667200 0.018235
11.677100 0.018045
11.687000 0.017859
11.696900 0.017670
11.706800 0.017476
11.716700 0.017273
11.726600 0.017063
11.736500 0.016848
11.746400 0.016632
11.756300 0.016417
11.766200 0.016206
11.776100 0.016001
11.786000 0.015803
11.795900 0.015612
11.805800 0.015427
11.815700 0.015247
11.825600 0.015071
11.835500 0.014901
11.845400 0.014737
11.855300 0.014579
11.865200 0.014429
11.875100 0.014283
11.885000 0.014139
11.894900 0.013995
11.904800 0.013851
11.914700 0.013707
11.924600 0.013565
11.934500 0.013425
11.944400 0.013289
11.954300 0.013156
11.964200 0.013025
11.974100 0.012894
11.984000 0.012763
11.993900 0.012631
12.003800 0.012497
12.013700 0.012362
12.023600 0.012228
12.033500 0.012096
12.043400 0.011965
12.053300 0.011837
12.063200 0.011713
12.073100 0.011594
12.083000 0.011481
12.092900 0.011373
12.102800 0.011267
12.112700 0.011162
12.122600 0.011056
12.132500 0.010946
12.142400 0.010833
12.152300 0.010719
12.162200 0.010604
12.172100 0.010489
12.182000 0.010376
12.191900 0.010265
12.201800 0.010158
12.211700 0.010056
12.221600 0.009958
12.231500 0.009864
12.241400 0.009772
12.251300 0.009681
12.261200 0.009591
12.271100 0.009499
12.281000 0.009406
12.290900 0.009311
12.300800 0.009214
12.310700 0.009118
12.320600 0.009023
12.330500 0.008930
12.340400 0.008839
12.350300 0.008749
12.360200 0.008661
12.370100 0.008573
12.380000 0.008486
12.389900 0.008399
12.399800 0.008313
12.409700 0.008228
12.419600 0.008144
12.429500 0.008063
12.439400 0.007983
12.449300 0.007905
12.459200 0.007828
12.469100 0.007752
12.479000 0.007676
12.488900 0.007602
12.498800 0.007530
12.508700 0.007460
12.518600 0.007393
12.528500 0.007327
12.538400 0.007262
12.548300 0.007197
12.558200 0.007133
12.568100 0.007070
12.578000 0.007005
12.587900 0.006939
12.597800 0.006870
12.607700 0.006801
12.617600 0.006730
12.627500 0.006658
12.637400 0.006583
12.647300 0.006506
12.657200 0.006429
12.667100 0.006354
12.677000 0.006283
12.686900 0.006218
12.696800 0.006157
12.706700 0.006098
12.716600 0.006042
12.726500 0.005986
12.736400 0.005931
12.746300 0.005877
12.756200 0.005824
12.766100 0.005771
12.776000 0.005717
12.785900 0.005663
12.795800 0.005608
12.805700 0.005553
12.815600 0.005498
12.825500 0.005445
12.835400 0.005392
12.845300 0.005341
12.855200 0.005290
12.865100 0.005240
12.875000 0.005190
12.884900 0.005140
12.894800 0.005091
12.904700 0.005042
12.914600 0.004994
12.924500 0.004946
12.934400 0.004899
12.944300 0.004853
12.954200 0.004807
12.964100 0.004761
12.974000 0.004715
12.983900 0.004671
12.993800 0.004629
13.003700 0.004589
13.013600 0.004550
13.023500 0.004514
13.033400 0.004477
13.043300 0.004440
13.053200 0.004403
13.063100 0.004364
13.073000 0.004325
13.082900 0.004286
13.092800 0.004247
13.102700 0.004208
13.112600 0.004171
13.122500 0.004135
13.132400 0.004100
13.142300 0.004066
13.152200 0.004032
13.162100 0.003998
13.172000 0.003965
13.181900 0.003930
13.191800 0.003895
13.201700 0.003860
13.211600 0.003825
13.221500 0.003790
13.231400 0.003756
13.241300 0.003723
13.251200 0.003691
13.261100 0.003660
13.271000 0.003629
13.280900 0.003598
13.290800 0.003566
13.300700 0.003534
13.310600 0.003502
13.320500 0.003470
13.330400 0.003440
13.340300 0.003411
13.350200 0.003384
13.360100 0.003358
13.370000 0.003333
13.379900 0.003308
13.389800 0.003283
13.399700 0.003258
13.409600 0.003234
13.419500 0.003210
13.429400 0.003186
13.439300 0.003163
13.449200 0.003140
13.459100 0.003118
13.469000 0.003096
13.478900 0.003074
13.488800 0.003053
13.498700 0.003033
13.508600 0.003012
13.518500 0.002990
13.528400 0.002967
13.538300 0.002944
13.548200 0.002921
13.558100 0.002898
13.568000 0.002876
13.577900 0.002855
13.587800 0.002834
13.597700 0.002813
13.607600 0.002792
13.617500 0.002772
13.627400 0.002753
13.637300 0.002733
13.647200 0.002715
13.657100 0.002696
13.667000 0.002678
13.676900 0.002660
13.686800 0.002642
13.696700 0.002624
13.706600 0.002606
13.716500 0.002588
13.726400 0.002570
13.736300 0.002551
13.746200 0.002533
13.756100 0.002514
13.766000 0.002496
13.775900 0.002478
13.785800 0.002461
13.795700 0.002445
13.805600 0.002429
13.815500 0.002414
13.825400 0.002399
13.835300 0.002385
13.845200 0.002371
13.855100 0.002358
13.865000 0.002345
13.874900 0.002331
13.884800 0.002317
13.894700 0.002302
13.904600 0.002288
13.914500 0.002273
13.924400 0.002258
13.934300 0.002243
13.944200 0.002229
13.954100 0.002216
13.964000 0.002203
13.973900 0.002191
13.983800 0.002178
13.993700 0.002166
14.003600 0.002153
14.013500 0.002141
14.023400 0.002128
14.033300 0.002116
14.043200 0.002104
14.053100 0.002092
14.063000 0.002080
14.072900 0.002069
14.082800 0.002057
14.092700 0.002046
14.102600 0.002036
14.112500 0.002025
14.122400 0.002014
14.132300 0.002004
14.142200 0.001993
14.152100 0.001982
14.162000 0.001972
14.171900 0.001962
14.181800 0.001952
14.191700 0.001943
14.201600 0.001934
14.211500 0.001925
14.221400 0.001916
14.231300 0.001907
14.241200 0.001899
14.251100 0.001890
14.261000 0.001882
14.270900 0.001874
14.280800 0.001866
14.290700 0.001858
14.300600 0.001850
14.310500 0.001843
14.320400 0.001835
14.330300 0.001827
14.340200 0.001819
14.350100 0.001812
14.360000 0.001804
14.369900 0.001796
14.379800 0.001789
14.389700 0.001781
14.399600 0.001773
14.409500 0.001766
14.419400 0.001758
14.429300 0.001751
14.439200 0.001745
14.449100 0.001738
14.459000 0.001731
14.468900 0.001724
14.478800 0.001716
14.488700 0.001709
14.498600 0.001702
14.508500 0.001695
14.518400 0.001688
14.528300 0.001681
14.538200 0.001675
14.548100 0.001668
14.558000 0.001662
14.567900 0.001656
14.577800 0.001650
14.587700 0.001644
14.597600 0.001638
14.607500 0.001632
14.617400 0.001626
14.627300 0.001620
14.637200 0.001614
14.647100 0.001608
14.657000 0.001602
14.666900 0.001596
14.676800 0.001590
14.686700 0.001585
14.696600 0.001579
14.706500 0.001574
14.716400 0.001568
14.726300 0.001563
14.736200 0.001558
14.746100 0.001553
14.756000 0.001548
14.765900 0.001543
14.775800 0.001538
14.785700 0.001533
14.795600 0.001528
14.805500 0.001522
14.815400 0.001517
14.825300 0.001512
14.835200 0.001507
14.845100 0.001502
14.855000 0.001497
14.864900 0.001493
14.874800 0.001488
14.884700 0.001483
14.894600 0.001479
14.904500 0.001474
14.914400 0.001469
14.924300 0.001465
14.934200 0.001460
14.944100 0.001456
14.954000 0.001451
14.963900 0.001447
14.973800 0.001443
14.983700 0.001439
14.993600 0.001435
15.003500 0.001431
15.013400 0.001427
15.023300 0.001423
15.033200 0.001419
15.043100 0.001416
15.053000 0.001412
15.062900 0.001408
15.072800 0.001404
15.082700 0.001400
15.092600 0.001397
15.102500 0.001393
15.112400 0.001389
15.122300 0.001386
15.132200 0.001382
15.142100 0.001378
15.152000 0.001375
15.161900 0.001371
15.171800 0.001367
15.181700 0.001364
15.191600 0.001360
15.201500 0.001357
15.211400 0.001353
15.221300 0.001350
15.231200 0.001346
15.241100 0.001343
15.251000 0.001339
15.260900 0.001336
15.270800 0.001333
15.280700 0.001329
15.290600 0.001326
15.300500 0.001323
15.310400 0.001319
15.320300 0.001316
15.330200 0.001312
15.340100 0.001309
15.350000 0.001306
15.359900 0.001302
15.369800 0.001299
15.379700 0.001295
15.389600 0.001292
15.399500 0.001289
15.409400 0.001286
15.419300 0.001283
15.429200 0.001280
15.439100 0.001277
15.449000 0.001274
15.458900 0.001271
15.468800 0.001267
15.478700 0.001264
15.488600 0.001261
15.498500 0.001259
15.508400 0.001256
15.518300 0.001253
15.528200 0.001250
15.538100 0.001247
15.548000 0.001244
15.557900 0.001241
15.567800 0.001238
15.577700 0.001235
15.587600 0.001232
15.597500 0.001229
15.607400 0.001227
15.617300 0.001224
15.627200 0.001221
15.637100 0.001219
15.647000 0.001216
15.656900 0.001213
15.666800 0.001211
15.676700 0.001208
15.686600 0.001206
15.696500 0.001203
15.706400 0.001201
15.716300 0.001198
15.726200 0.001195
15.736100 0.001193
15.746000 0.001190
15.755900 0.001188
15.765800 0.001185
15.775700 0.001183
15.785600 0.001180
15.795500 0.001178
15.805400 0.001175
15.815300 0.001173
15.825200 0.001170
15.835100 0.001168
15.845000 0.001165
15.854900 0.001163
15.864800 0.001161
15.874700 0.001158
15.884600 0.001156
15.894500 0.001153
15.904400 0.001151
15.914300 0.001148
15.924200 0.001146
15.934100 0.001143
15.944000 0.001141
15.953900 0.001139
15.963800 0.001136
15.973700 0.001134
15.983600 0.001132
15.993500 0.001129
16.003400 0.001127
16.013300 0.001125
16.023200 0.001123
16.033100 0.001120
16.043000 0.001118
16.052900 0.001116
16.062800 0.001114
16.072700 0.001112
16.082600 0.001109
16.092500 0.001107
16.102400 0.001105
16.112300 0.001103
16.122200 0.001101
16.132100 0.001098
16.142000 0.001096
16.151900 0.001094
16.161800 0.001092
16.171700 0.001090
16.181600 0.001088
16.191500 0.001086
16.201400 0.001084
16.211300 0.001081
16.221200 0.001079
16.231100 0.001077
16.241000 0.001075
16.250900 0.001073
16.260800 0.001071
16.270700 0.001069
16.280600 0.001067
16.290500 0.001065
16.300400 0.001063
16.310300 0.001061
16.320200 0.001059
16.330100 0.001057
16.340000 0.001055
16.349900 0.001053
16.359800 0.001051
16.369700 0.001049
16.379600 0.001047
16.389500 0.001045
16.399400 0.001043
16.409300 0.001042
16.419200 0.001040
16.429100 0.001038
16.439000 0.001036
16.448900 0.001034
16.458800 0.001032
16.468700 0.001030
16.478600 0.001028
16.488500 0.001027
16.498400 0.001025
16.508300 0.001023
16.518200 0.001021
16.528100 0.001019
16.538000 0.001017
16.547900 0.001016
16.557800 0.001014
16.567700 0.001012
16.577600 0.001010
16.587500 0.001009
16.597400 0.001007
16.607300 0.001005
16.617200 0.001003
16.627100 0.001001
16.637000 0.001000
16.646900 0.000998
16.656800 0.000996
16.666700 0.000995
16.676600 0.000993
16.686500 0.000991
16.696400 0.000989
16.706300 0.000988
16.716200 0.000986
16.726100 0.000984
16.736000 0.000983
16.745900 0.000981
16.755800 0.000979
16.765700 0.000978
16.775600 0.000976
16.785500 0.000974
16.795400 0.000973
16.805300 0.000971
16.815200 0.000969
16.825100 0.000968
16.835000 0.000966
16.844900 0.000965
16.854800 0.000963
16.864700 0.000961
16.874600 0.000960
16.884500 0.000958
16.894400 0.000957
16.904300 0.000955
16.914200 0.000953
16.924100 0.000952
16.934000 0.000950
16.943900 0.000949
16.953800 0.000947
16.963700 0.000946
16.973600 0.000944
16.983500 0.000943
16.993400 0.000941
17.003300 0.000940
17.013200 0.000938
17.023100 0.000937
17.033000 0.000935
17.042900 0.000934
17.052800 0.000932
17.062700 0.000931
17.072600 0.000929
17.082500 0.000928
17.092400 0.000926
17.102300 0.000925
17.112200 0.000923
17.122100 0.000922
17.132000 0.000920
17.141900 0.000919
17.151800 0.000917
17.161700 0.000916
17.171600 0.000914
17.181500 0.000913
17.191400 0.000911
17.201300 0.000910
17.211200 0.000908
17.221100 0.000907
17.231000 0.000906
17.240900 0.000904
17.250800 0.000903
17.260700 0.000901
17.270600 0.000900
17.280500 0.000899
17.290400 0.000897
17.300300 0.000896
17.310200 0.000894
17.320100 0.000893
17.330000 0.000892
17.339900 0.000890
17.349800 0.000889
17.359700 0.000887
17.369600 0.000886
17.379500 0.000885
17.389400 0.000883
17.399300 0.000882
17.409200 0.000881
17.419100 0.000879
17.429000 0.000878
17.438900 0.000877
17.448800 0.000875
17.458700 0.000874
17.468600 0.000873
17.478500 0.000871
17.488400 0.000870
17.498300 0.000869
17.508200 0.000867
17.518100 0.000866
17.528000 0.000865
17.537900 0.000863
17.547800 0.000862
17.557700 0.000861
17.567600 0.000859
17.577500 0.000858
17.587400 0.000857
17.597300 0.000856
17.607200 0.000854
17.617100 0.000853
17.627000 0.000852
17.636900 0.000850
17.646800 0.000849
17.656700 0.000848
17.666600 0.000847
17.676500 0.000845
17.686400 0.000844
17.696300 0.000843
17.706200 0.000842
17.716100 0.000840
17.726000 0.000839
17.735900 0.000838
17.745800 0.000837
17.755700 0.000835
17.765600 0.000834
17.775500 0.000833
17.785400 0.000832
17.795300 0.000830
17.805200 0.000829
17.815100 0.000828
17.825000 0.000827
17.834900 0.000826
17.844800 0.000824
17.854700 0.000823
17.864600 0.000822
17.874500 0.000821
17.884400 0.000820
17.894300 0.000818
17.904200 0.000817
17.914100 0.000816
17.924000 0.000815
17.933900 0.000814
17.943800 0.000812
17.953700 0.000811
17.963600 0.000810
17.973500 0.000809
17.983400 0.000808
17.993300 0.000807
18.003200 0.000805
18.013100 0.000804
18.023000 0.000803
18.032900 0.000802
18.042800 0.000801
18.052700 0.000800
18.062600 0.000799
18.072500 0.000797
18.082400 0.000796
18.092300 0.000795
18.102200 0.000794
18.112100 0.000793
18.122000 0.000792
18.131900 0.000791
18.141800 0.000789
18.151700 0.000788
18.161600 0.000787
18.171500 0.000786
18.181400 0.000785
18.191300 0.000784
18.201200 0.000783
18.211100 0.000782
18.221000 0.000781
18.230900 0.000779
18.240800 0.000778
18.250700 0.000777
18.260600 0.000776
18.270500 0.000775
18.280400 0.000774
18.290300 0.000773
18.300200 0.000772
18.310100 0.000771
18.320000 0.000770
18.329900 0.000769
18.339800 0.000768
18.349700 0.000767
18.359600 0.000765
18.369500 0.000764
18.379400 0.000763
18.389300 0.000762
18.399200 0.000761
18.409100 0.000760
18.419000 0.000759
18.428900 0.000758
18.438800 0.000757
18.448700 0.000756
18.458600 0.000755
18.468500 0.000754
18.478400 0.000753
18.488300 0.000752
18.498200 0.000751
18.508100 0.000750
18.518000 0.000749
18.527900 0.000748
18.537800 0.000747
18.547700 0.000746
18.557600 0.000745
18.567500 0.000744
18.577400 0.000743
18.587300 0.000742
18.597200 0.000741
18.607100 0.000740
18.617000 0.000739
18.626900 0.000738
18.636800 0.000737
18.646700 0.000736
18.656600 0.000735
18.666500 0.000734
18.676400 0.000733
18.686300 0.000732
18.696200 0.000731
18.706100 0.000730
18.716000 0.000729
18.725900 0.000728
18.735800 0.000727
18.745700 0.000726
18.755600 0.000725
18.765500 0.000724
18.775400 0.000723
18.785300 0.000722
18.795200 0.000721
18.805100 0.000720
18.815000 0.000719
18.824900 0.000718
18.834800 0.000717
18.844700 0.000716
18.854600 0.000715
18.864500 0.000714
18.874400 0.000713
18.884300 0.000712
18.894200 0.000712
18.904100 0.000711
18.914000 0.000710
18.923900 0.000709
18.933800 0.000708
18.943700 0.000707
18.953600 0.000706
18.963500 0.000705
18.973400 0.000704
18.983300 0.000703
18.993200 0.000702
19.003100 0.000701
19.013000 0.000700
19.022900 0.000700
19.032800 0.000699
19.042700 0.000698
19.052600 0.000697
19.062500 0.000696
19.072400 0.000695
19.082300 0.000694
19.092200 0.000693
19.102100 0.000692
19.112000 0.000691
19.121900 0.000691
19.131800 0.000690
19.141700 0.000689
19.151600 0.000688
19.161500 0.000687
19.171400 0.000686
19.181300 0.000685
19.191200 0.000684
19.201100 0.000683
19.211000 0.000683
19.220900 0.000682
19.230800 0.000681
19.240700 0.000680
19.250600 0.000679
19.260500 0.000678
19.270400 0.000677
19.280300 0.000676
19.290200 0.000676
19.300100 0.000675
19.310000 0.000674
19.319900 0.000673
19.329800 0.000672
19.339700 0.000671
19.349600 0.000670
19.359500 0.000670
19.369400 0.000669
19.379300 0.000668
19.389200 0.000667
19.399100 0.000666
19.409000 0.000665
19.418900 0.000665
19.428800 0.000664
19.438700 0.000663
19.448600 0.000662
19.458500 0.000661
19.468400 0.000660
19.478300 0.000660
19.488200 0.000659
19.498100 0.000658
19.508000 0.000657
19.517900 0.000656
19.527800 0.000655
19.537700 0.000655
19.547600 0.000654
19.557500 0.000653
19.567400 0.000652
19.577300 0.000651
19.587200 0.000651
19.597100 0.000650
19.607000 0.000649
19.616900 0.000648
19.626800 0.000647
19.636700 0.000647
19.646600 0.000646
19.656500 0.000645
19.666400 0.000644
19.676300 0.000643
19.686200 0.000643
19.696100 0.000642
19.706000 0.000641
19.715900 0.000640
19.725800 0.000639
19.735700 0.000639
19.745600 0.000638
19.755500 0.000637
19.765400 0.000636
19.775300 0.000636
19.785200 0.000635
19.795100 0.000634
19.805000 0.000633
19.814900 0.000632
19.824800 0.000632
19.834700 0.000631
19.844600 0.000630
19.854500 0.000629
19.864400 0.000629
19.874300 0.000628
19.884200 0.000627
19.894100 0.000626
19.904000 0.000626
19.913900 0.000625
19.923800 0.000624
19.933700 0.000623
19.943600 0.000622
19.953500 0.000622
19.963400 0.000621
19.973300 0.000620
19.983200 0.000619
19.993100 0.000619
20.003000 0.000618
20.012900 0.000617
20.022800 0.000617
20.032700 0.000616
20.042600 0.000615
20.052500 0.000614
20.062400 0.000614
20.072300 0.000613
20.082200 0.000612
20.092100 0.000611
20.102000 0.000611
20.111900 0.000610
20.121800 0.000609
20.131700 0.000608
20.141600 0.000608
20.151500 0.000607
20.161400 0.000606
20.171300 0.000606
20.181200 0.000605
20.191100 0.000604
20.201000 0.000603
20.210900 0.000603
20.220800 0.000602
20.230700 0.000601
20.240600 0.000601
20.250500 0.000600
20.260400 0.000599
20.270300 0.000598
20.280200 0.000598
20.290100 0.000597
20.300000 0.000596
20.309900 0.000596
20.319800 0.000595
20.329700 0.000594
20.339600 0.000594
20.349500 0.000593
20.359400 0.000592
20.369300 0.000591
20.379200 0.000591
20.389100 0.000590
20.399000 0.000589
20.408900 0.000589
20.418800 0.000588
20.428700 0.000587
20.438600 0.000587
20.448500 0.000586
20.458400 0.000585
20.468300 0.000585
20.478200 0.000584
20.488100 0.000583
20.498000 0.000583
20.507900 0.000582
20.517800 0.000581
20.527700 0.000581
20.537600 0.000580
20.547500 0.000579
20.557400 0.000579
20.567300 0.000578
20.577200 0.000577
20.587100 0.000577
20.597000 0.000576
20.606900 0.000575
20.616800 0.000575
20.626700 0.000574
20.636600 0.000573
20.646500 0.000573
20.656400 0.000572
20.666300 0.000571
20.676200 0.000571
20.686100 0.000570
20.696000 0.000569
20.705900 0.000569
20.715800 0.000568
20.725700 0.000567
20.735600 0.000567
20.745500 0.000566
20.755400 0.000565
20.765300 0.000565
20.775200 0.000564
20.785100 0.000563
20.795000 0.000563
20.804900 0.000562
20.814800 0.000562
20.824700 0.000561
20.834600 0.000560
20.844500 0.000560
20.854400 0.000559
20.864300 0.000558
20.874200 0.000558
20.884100 0.000557
20.894000 0.000556
20.903900 0.000556
20.913800 0.000555
20.923700 0.000555
20.933600 0.000554
20.943500 0.000553
20.953400 0.000553
20.963300 0.000552
20.973200 0.000552
20.983100 0.000551
20.993000 0.000550
21.002900 0.000550
21.012800 0.000549
21.022700 0.000548
21.032600 0.000548
21.042500 0.000547
21.052400 0.000547
21.062300 0.000546
21.072200 0.000545
21.082100 0.000545
21.092000 0.000544
21.101900 0.000544
21.111800 0.000543
21.121700 0.000542
21.131600 0.000542
21.141500 0.000541
21.151400 0.000541
21.161300 0.000540
21.171200 0.000539
21.181100 0.000539
21.191000 0.000538
21.200900 0.000538
21.210800 0.000537
21.220700 0.000536
21.230600 0.000536
21.240500 0.000535
21.250400 0.000535
21.260300 0.000534
21.270200 0.000533
21.280100 0.000533
21.290000 0.000532
21.299900 0.000532
21.309800 0.000531
21.319700 0.000531
21.329600 0.000530
21.339500 0.000529
21.349400 0.000529
21.359300 0.000528
21.369200 0.000528
21.379100 0.000527
21.389000 0.000526
21.398900 0.000526
21.408800 0.000525
21.418700 0.000525
21.428600 0.000524
21.438500 0.000524
21.448400 0.000523
21.458300 0.000522
21.468200 0.000522
21.478100 0.000521
21.488000 0.000521
21.497900 0.000520
21.507800 0.000520
21.517700 0.000519
21.527600 0.000519
21.537500 0.000518
21.547400 0.000517
21.557300 0.000517
21.567200 0.000516
21.577100 0.000516
21.587000 0.000515
21.596900 0.000515
21.606800 0.000514
21.616700 0.000514
21.626600 0.000513
21.636500 0.000512
21.646400 0.000512
21.656300 0.000511
21.666200 0.000511
21.676100 0.000510
21.686000 0.000510
21.695900 0.000509
21.705800 0.000509
21.715700 0.000508
21.725600 0.000507
21.735500 0.000507
21.745400 0.000506
21.755300 0.000506
21.765200 0.000505
21.775100 0.000505
21.785000 0.000504
21.794900 0.000504
21.804800 0.000503
21.814700 0.000503
21.824600 0.000502
21.834500 0.000502
21.844400 0.000501
21.854300 0.000501
21.864200 0.000500
21.874100 0.000499
21.884000 0.000499
21.893900 0.000498
21.903800 0.000498
21.913700 0.000497
21.923600 0.000497
21.933500 0.000496
21.943400 0.000496
21.953300 0.000495
21.963200 0.000495
21.973100 0.000494
21.983000 0.000494
21.992900 0.000493
22.002800 0.000493
22.012700 0.000492
22.022600 0.000492
22.032500 0.000491
22.042400 0.000491
22.052300 0.000490
22.062200 0.000490
22.072100 0.000489
22.082000 0.000489
22.091900 0.000488
22.101800 0.000488
22.111700 0.000487
22.121600 0.000487
22.131500 0.000486
22.141400 0.000486
22.151300 0.000485
22.161200 0.000485
22.171100 0.000484
22.181000 0.000484
22.190900 0.000483
22.200800 0.000483
22.210700 0.000482
22.220600 0.000482
22.230500 0.000481
22.240400 0.000481
22.250300 0.000480
22.260200 0.000480
22.270100 0.000479
22.280000 0.000479
22.289900 0.000478
22.299800 0.000478
22.309700 0.000477
22.319600 0.000477
22.329500 0.000476
22.339400 0.000476
22.349300 0.000475
22.359200 0.000475
22.369100 0.000474
22.379000 0.000474
22.388900 0.000473
22.398800 0.000473
22.408700 0.000472
22.418600 0.000472
22.428500 0.000471
22.438400 0.000471
22.448300 0.000470
22.458200 0.000470
22.468100 0.000469
22.478000 0.000469
22.487900 0.000468
22.497800 0.000468
22.507700 0.000467
22.517600 0.000467
22.527500 0.000466
22.537400 0.000466
22.547300 0.000466
22.557200 0.000465
22.567100 0.000465
22.577000 0.000464
22.586900 0.000464
22.596800 0.000463
22.606700 0.000463
22.616600 0.000462
22.626500 0.000462
22.636400 0.000461
22.646300 0.000461
22.656200 0.000460
22.666100 0.000460
22.676000 0.000459
22.685900 0.000459
22.695800 0.000459
22.705700 0.000458
22.715600 0.000458
22.725500 0.000457
22.735400 0.000457
22.745300 0.000456
22.755200 0.000456
22.765100 0.000455
22.775000 0.000455
22.784900 0.000454
22.794800 0.000454
22.804700 0.000453
22.814600 0.000453
22.824500 0.000453
22.834400 0.000452
22.844300 0.000452
22.854200 0.000451
22.864100 0.000451
22.874000 0.000450
22.883900 0.000450
22.893800 0.000449
22.903700 0.000449
22.913600 0.000449
22.923500 0.000448
22.933400 0.000448
22.943300 0.000447
22.953200 0.000447
22.963100 0.000446
22.973000 0.000446
22.982900 0.000445
22.992800 0.000445
23.002700 0.000445
23.012600 0.000444
23.022500 0.000444
23.032400 0.000443
23.042300 0.000443
23.052200 0.000442
23.062100 0.000442
23.072000 0.000442
23.081900 0.000441
23.091800 0.000441
23.101700 0.000440
23.111600 0.000440
23.121500 0.000439
23.131400 0.000439
23.141300 0.000438
23.151200 0.000438
23.161100 0.000438
23.171000 0.000437
23.180900 0.000437
23.190800 0.000436
23.200700 0.000436
23.210600 0.000435
23.220500 0.000435
23.230400 0.000435
23.240300 0.000434
23.250200 0.000434
23.260100 0.000433
23.270000 0.000433
23.279900 0.000433
23.289800 0.000432
23.299700 0.000432
23.309600 0.000431
23.319500 0.000431
23.329400 0.000430
23.339300 0.000430
23.349200 0.000430
23.359100 0.000429
23.369000 0.000429
23.378900 0.000428
23.388800 0.000428
23.398700 0.000428
23.408600 0.000427
23.418500 0.000427
23.428400 0.000426
23.438300 0.000426
23.448200 0.000425
23.458100 0.000425
23.468000 0.000425
23.477900 0.000424
23.487800 0.000424
23.497700 0.000423
23.507600 0.000423
23.517500 0.000423
23.527400 0.000422
23.537300 0.000422
23.547200 0.000421
23.557100 0.000421
23.567000 0.000421
23.576900 0.000420
23.586800 0.000420
23.596700 0.000419
23.606600 0.000419
23.616500 0.000419
23.626400 0.000418
23.636300 0.000418
23.646200 0.000417
23.656100 0.000417
23.666000 0.000417
23.675900 0.000416
23.685800 0.000416
23.695700 0.000415
23.705600 0.000415
23.715500 0.000415
23.725400 0.000414
23.735300 0.000414
23.745200 0.000413
23.755100 0.000413
23.765000 0.000413
23.774900 0.000412
23.784800 0.000412
23.794700 0.000412
23.804600 0.000411
23.814500 0.000411
23.824400 0.000410
23.834300 0.000410
23.844200 0.000410
23.854100 0.000409
23.864000 0.000409
23.873900 0.000408
23.883800 0.000408
23.893700 0.000408
23.903600 0.000407
23.913500 0.000407
23.923400 0.000407
23.933300 0.000406
23.943200 0.000406
23.953100 0.000405
23.963000 0.000405
23.972900 0.000405
23.982800 0.000404
23.992700 0.000404
24.002600 0.000403
24.012500 0.000403
24.022400 0.000403
24.032300 0.000402
24.042200 0.000402
24.052100 0.000402
24.062000 0.000401
24.071900 0.000401
24.081800 0.000400
24.091700 0.000400
24.101600 0.000400
24.111500 0.000399
24.121400 0.000399
24.131300 0.000399
24.141200 0.000398
24.151100 0.000398
24.161000 0.000398
24.170900 0.000397
24.180800 0.000397
24.190700 0.000396
24.200600 0.000396
24.210500 0.000396
24.220400 0.000395
24.230300 0.000395
24.240200 0.000395
24.250100 0.000394
24.260000 0.000394
24.269900 0.000394
24.279800 0.000393
24.289700 0.000393
24.299600 0.000392
24.309500 0.000392
24.319400 0.000392
24.329300 0.000391
24.339200 0.000391
24.349100 0.000391
24.359000 0.000390
24.368900 0.000390
24.378800 0.000390
24.388700 0.000389
24.398600 0.000389
24.408500 0.000388
24.418400 0.000388
24.428300 0.000388
24.438200 0.000387
24.448100 0.000387
24.458000 0.000387
24.467900 0.000386
24.477800 0.000386
24.487700 0.000386
24.497600 0.000385
24.507500 0.000385
24.517400 0.000385
24.527300 0.000384
24.537200 0.000384
24.547100 0.000384
24.557000 0.000383
24.566900 0.000383
24.576800 0.000383
24.586700 0.000382
24.596600 0.000382
24.606500 0.000381
24.616400 0.000381
24.626300 0.000381
24.636200 0.000380
24.646100 0.000380
24.656000 0.000380
24.665900 0.000379
24.675800 0.000379
24.685700 0.000379
24.695600 0.000378
24.705500 0.000378
24.715400 0.000378
24.725300 0.000377
24.735200 0.000377
24.745100 0.000377
24.755000 0.000376
24.764900 0.000376
24.774800 0.000376
24.784700 0.000375
24.794600 0.000375
24.804500 0.000375
24.814400 0.000374
24.824300 0.000374
24.834200 0.000374
24.844100 0.000373
24.854000 0.000373
24.863900 0.000373
24.873800 0.000372
24.883700 0.000372
24.893600 0.000372
24.903500 0.000371
24.913400 0.000371
24.923300 0.000371
24.933200 0.000370
24.943100 0.000370
24.953000 0.000370
24.962900 0.000369
24.972800 0.000369
24.982700 0.000369
24.992600 0.000368
25.002500 0.000368
25.012400 0.000368
25.022300 0.000367
25.032200 0.000367
25.042100 0.000367
25.052000 0.000366
25.061900 0.000366
25.071800 0.000366
25.081700 0.000365
25.091600 0.000365
25.101500 0.000365
25.111400 0.000364
25.121300 0.000364
25.131200 0.000364
25.141100 0.000364
25.151000 0.000363
25.160900 0.000363
25.170800 0.000363
25.180700 0.000362
25.190600 0.000362
25.200500 0.000362
25.210400 0.000361
25.220300 0.000361
25.230200 0.000361
25.240100 0.000360
25.250000 0.000360
25.259900 0.000360
25.269800 0.000359
25.279700 0.000359
25.289600 0.000359
25.299500 0.000358
25.309400 0.000358
25.319300 0.000358
25.329200 0.000358
25.339100 0.000357
25.349000 0.000357
25.358900 0.000357
25.368800 0.000356
25.378700 0.000356
25.388600 0.000356
25.398500 0.000355
25.408400 0.000355
25.418300 0.000355
25.428200 0.000354
25.438100 0.000354
25.448000 0.000354
25.457900 0.000354
25.467800 0.000353
25.477700 0.000353
25.487600 0.000353
25.497500 0.000352
25.507400 0.000352
25.517300 0.000352
25.527200 0.000351
25.537100 0.000351
25.547000 0.000351
25.556900 0.000350
25.566800 0.000350
25.576700 0.000350
25.586600 0.000350
25.596500 0.000349
25.606400 0.000349
25.616300 0.000349
25.626200 0.000348
25.636100 0.000348
25.646000 0.000348
25.655900 0.000347
25.665800 0.000347
25.675700 0.000347
25.685600 0.000347
25.695500 0.000346
25.705400 0.000346
25.715300 0.000346
25.725200 0.000345
25.735100 0.000345
25.745000 0.000345
25.754900 0.000345
25.764800 0.000344
25.774700 0.000344
25.784600 0.000344
25.794500 0.000343
25.804400 0.000343
25.814300 0.000343
25.824200 0.000342
25.834100 0.000342
25.844000 0.000342
25.853900 0.000342
25.863800 0.000341
25.873700 0.000341
25.883600 0.000341
25.893500 0.000340
25.903400 0.000340
25.913300 0.000340
25.923200 0.000340
25.933100 0.000339
25.943000 0.000339
25.952900 0.000339
25.962800 0.000338
25.972700 0.000338
25.982600 0.000338
25.992500 0.000338
26.002400 0.000337
26.012300 0.000337
26.022200 0.000337
26.032100 0.000336
26.042000 0.000336
26.051900 0.000336
26.061800 0.000336
26.071700 0.000335
26.081600 0.000335
26.091500 0.000335
26.101400 0.000334
26.111300 0.000334
26.121200 0.000334
26.131100 0.000334
26.141000 0.000333
26.150900 0.000333
26.160800 0.000333
26.170700 0.000332
26.180600 0.000332
26.190500 0.000332
26.200400 0.000332
26.210300 0.000331
26.220200 0.000331
26.230100 0.000331
26.240000 0.000331
26.249900 0.000330
26.259800 0.000330
26.269700 0.000330
26.279600 0.000329
26.289500 0.000329
26.299400 0.000329
26.309300 0.000329
26.319200 0.000328
26.329100 0.000328
26.339000 0.000328
26.348900 0.000328
26.358800 0.000327
26.368700 0.000327
26.378600 0.000327
26.388500 0.000326
26.398400 0.000326
26.408300 0.000326
26.418200 0.000326
26.428100 0.000325
26.438000 0.000325
26.447900 0.000325
26.457800 0.000325
26.467700 0.000324
26.477600 0.000324
26.487500 0.000324
26.497400 0.000323
26.507300 0.000323
26.517200 0.000323
26.527100 0.000323
26.537000 0.000322
26.546900 0.000322
26.556800 0.000322
26.566700 0.000322
26.576600 0.000321
26.586500 0.000321
26.596400 0.000321
26.606300 0.000321
26.616200 0.000320
26.626100 0.000320
26.636000 0.000320
26.645900 0.000320
26.655800 0.000319
26.665700 0.000319
26.675600 0.000319
26.685500 0.000318
26.695400 0.000318
26.705300 0.000318
26.715200 0.000318
26.725100 0.000317
26.735000 0.000317
26.744900 0.000317
26.754800 0.000317
26.764700 0.000316
26.774600 0.000316
26.784500 0.000316
26.794400 0.000316
26.804300 0.000315
26.814200 0.000315
26.824100 0.000315
26.834000 0.000315
26.843900 0.000314
26.853800 0.000314
26.863700 0.000314
26.873600 0.000314
26.883500 0.000313
26.893400 0.000313
26.903300 0.000313
26.913200 0.000313
26.923100 0.000312
26.933000 0.000312
26.942900 0.000312
26.952800 0.000312
26.962700 0.000311
26.972600 0.000311
26.982500 0.000311
26.992400 0.000311
27.002300 0.000310
27.012200 0.000310
27.022100 0.000310
27.032000 0.000310
27.041900 0.000309
27.051800 0.000309
27.061700 0.000309
27.071600 0.000309
27.081500 0.000308
27.091400 0.000308
27.101300 0.000308
27.111200 0.000308
27.121100 0.000307
27.131000 0.000307
27.140900 0.000307
27.150800 0.000307
27.160700 0.000306
27.170600 0.000306
27.180500 0.000306
27.190400 0.000306
27.200300 0.000305
27.210200 0.000305
27.220100 0.000305
27.230000 0.000305
27.239900 0.000304
27.249800 0.000304
27.259700 0.000304
27.269600 0.000304
27.279500 0.000303
27.289400 0.000303
27.299300 0.000303
27.309200 0.000303
27.319100 0.000302
27.329000 0.000302
27.338900 0.000302
27.348800 0.000302
27.358700 0.000302
27.368600 0.000301
27.378500 0.000301
27.388400 0.000301
27.398300 0.000301
27.408200 0.000300
27.418100 0.000300
27.428000 0.000300
27.437900 0.000300
27.447800 0.000299
27.457700 0.000299
27.467600 0.000299
27.477500 0.000299
27.487400 0.000298
27.497300 0.000298
27.507200 0.000298
27.517100 0.000298
27.527000 0.000297
27.536900 0.000297
27.546800 0.000297
27.556700 0.000297
27.566600 0.000297
27.576500 0.000296
27.586400 0.000296
27.596300 0.000296
27.606200 0.000296
27.616100 0.000295
27.626000 0.000295
27.635900 0.000295
27.645800 0.000295
27.655700 0.000294
27.665600 0.000294
27.675500 0.000294
27.685400 0.000294
27.695300 0.000294
27.705200 0.000293
27.715100 0.000293
27.725000 0.000293
27.734900 0.000293
27.744800 0.000292
27.754700 0.000292
27.764600 0.000292
27.774500 0.000292
27.784400 0.000291
27.794300 0.000291
27.804200 0.000291
27.814100 0.000291
27.824000 0.000291
27.833900 0.000290
27.843800 0.000290
27.853700 0.000290
27.863600 0.000290
27.873500 0.000289
27.883400 0.000289
27.893300 0.000289
27.903200 0.000289
27.913100 0.000289
27.923000 0.000288
27.932900 0.000288
27.942800 0.000288
27.952700 0.000288
27.962600 0.000287
27.972500 0.000287
27.982400 0.000287
27.992300 0.000287
28.002200 0.000287
28.012100 0.000286
28.022000 0.000286
28.031900 0.000286
28.041800 0.000286
28.051700 0.000285
28.061600 0.000285
28.071500 0.000285
28.081400 0.000285
28.091300 0.000285
28.101200 0.000284
28.111100 0.000284
28.121000 0.000284
28.130900 0.000284
28.140800 0.000284
28.150700 0.000283
28.160600 0.000283
28.170500 0.000283
28.180400 0.000283
28.190300 0.000282
28.200200 0.000282
28.210100 0.000282
28.220000 0.000282
28.229900 0.000282
28.239800 0.000281
28.249700 0.000281
28.259600 0.000281
28.269500 0.000281
28.279400 0.000280
28.289300 0.000280
28.299200 0.000280
28.309100 0.000280
28.319000 0.000280
28.328900 0.000279
28.338800 0.000279
28.348700 0.000279
28.358600 0.000279
28.368500 0.000279
28.378400 0.000278
28.388300 0.000278
28.398200 0.000278
28.408100 0.000278
28.418000 0.000278
28.427900 0.000277
28.437800 0.000277
28.447700 0.000277
28.457600 0.000277
28.467500 0.000276
28.477400 0.000276
28.487300 0.000276
28.497200 0.000276
28.507100 0.000276
28.517000 0.000275
28.526900 0.000275
28.536800 0.000275
28.546700 0.000275
28.556600 0.000275
28.566500 0.000274
28.576400 0.000274
28.586300 0.000274
28.596200 0.000274
28.606100 0.000274
28.616000 0.000273
28.625900 0.000273
28.635800 0.000273
28.645700 0.000273
28.655600 0.000273
28.665500 0.000272
28.675400 0.000272
28.685300 0.000272
28.695200 0.000272
28.705100 0.000272
28.715000 0.000271
28.724900 0.000271
28.734800 0.000271
28.744700 0.000271
28.754600 0.000271
28.764500 0.000270
28.774400 0.000270
28.784300 0.000270
28.794200 0.000270
28.804100 0.000269
28.814000 0.000269
28.823900 0.000269
28.833800 0.000269
28.843700 0.000269
28.853600 0.000268
28.863500 0.000268
28.873400 0.000268
28.883300 0.000268
28.893200 0.000268
28.903100 0.000267
28.913000 0.000267
28.922900 0.000267
28.932800 0.000267
28.942700 0.000267
28.952600 0.000267
28.962500 0.000266
28.972400 0.000266
28.982300 0.000266
28.992200 0.000266
29.002100 0.000266
29.012000 0.000265
29.021900 0.000265
29.031800 0.000265
29.041700 0.000265
29.051600 0.000265
29.061500 0.000264
29.071400 0.000264
29.081300 0.000264
29.091200 0.000264
29.101100 0.000264
29.111000 0.000263
29.120900 0.000263
29.130800 0.000263
29.140700 0.000263
29.150600 0.000263
29.160500 0.000262
29.170400 0.000262
29.180300 0.000262
29.190200 0.000262
29.200100 0.000262
29.210000 0.000261
29.219900 0.000261
29.229800 0.000261
29.239700 0.000261
29.249600 0.000261
29.259500 0.000260
29.269400 0.000260
29.279300 0.000260
29.289200 0.000260
29.299100 0.000260
29.309000 0.000260
29.318900 0.000259
29.328800 0.000259
29.338700 0.000259
29.348600 0.000259
29.358500 0.000259
29.368400 0.000258
29.378300 0.000258
29.388200 0.000258
29.398100 0.000258
29.408000 0.000258
29.417900 0.000257
29.427800 0.000257
29.437700 0.000257
29.447600 0.000257
29.457500 0.000257
29.467400 0.000257
29.477300 0.000256
29.487200 0.000256
29.497100 0.000256
29.507000 0.000256
29.516900 0.000256
29.526800 0.000255
29.536700 0.000255
29.546600 0.000255
29.556500 0.000255
29.566400 0.000255
29.576300 0.000254
29.586200 0.000254
29.596100 0.000254
29.606000 0.000254
29.615900 0.000254
29.625800 0.000254
29.635700 0.000253
29.645600 0.000253
29.655500 0.000253
29.665400 0.000253
29.675300 0.000253
29.685200 0.000252
29.695100 0.000252
29.705000 0.000252
29.714900 0.000252
29.724800 0.000252
29.734700 0.000252
29.744600 0.000251
29.754500 0.000251
29.764400 0.000251
29.774300 0.000251
29.784200 0.000251
29.794100 0.000250
29.804000 0.000250
29.813900 0.000250
29.823800 0.000250
29.833700 0.000250
29.843600 0.000250
29.853500 0.000249
29.863400 0.000249
29.873300 0.000249
29.883200 0.000249
29.893100 0.000249
29.903000 0.000249
29.912900 0.000248
29.922800 0.000248
29.932700 0.000248
29.942600 0.000248
29.952500 0.000248
29.962400 0.000247
29.972300 0.000247
29.982200 0.000247
29.992100 0.000247
30.002000 0.000247
30.011900 0.000247
30.021800 0.000246
30.031700 0.000246
30.041600 0.000246
30.051500 0.000246
30.061400 0.000246
30.071300 0.000246
30.081200 0.000245
30.091100 0.000245
30.101000 0.000245
30.110900 0.000245
30.120800 0.000245
30.130700 0.000245
30.140600 0.000244
30.150500 0.000244
30.160400 0.000244
30.170300 0.000244
30.180200 0.000244
30.190100 0.000243
30.200000 0.000243
30.209900 0.000243
30.219800 0.000243
30.229700 0.000243
30.239600 0.000243
30.249500 0.000242
30.259400 0.000242
30.269300 0.000242
30.279200 0.000242
30.289100 0.000242
30.299000 0.000242
30.308900 0.000241
30.318800 0.000241
30.328700 0.000241
30.338600 0.000241
30.348500 0.000241
30.358400 0.000241
30.368300 0.000240
30.378200 0.000240
30.388100 0.000240
30.398000 0.000240
30.407900 0.000240
30.417800 0.000240
30.427700 0.000239
30.437600 0.000239
30.447500 0.000239
30.457400 0.000239
30.467300 0.000239
30.477200 0.000239
30.487100 0.000238
30.497000 0.000238
30.506900 0.000238
30.516800 0.000238
30.526700 0.000238
30.536600 0.000238
30.546500 0.000237
30.556400 0.000237
30.566300 0.000237
30.576200 0.000237
30.586100 0.000237
30.596000 0.000237
30.605900 0.000236
30.615800 0.000236
30.625700 0.000236
30.635600 0.000236
30.645500 0.000236
30.655400 0.000236
30.665300 0.000235
30.675200 0.000235
30.685100 0.000235
30.695000 0.000235
30.704900 0.000235
30.714800 0.000235
30.724700 0.000234
30.734600 0.000234
30.744500 0.000234
30.754400 0.000234
30.764300 0.000234
30.774200 0.000234
30.784100 0.000233
30.794000 0.000233
30.803900 0.000233
30.813800 0.000233
30.823700 0.000233
30.833600 0.000233
30.843500 0.000233
30.853400 0.000232
30.863300 0.000232
30.873200 0.000232
30.883100 0.000232
30.893000 0.000232
30.902900 0.000232
30.912800 0.000231
30.922700 0.000231
30.932600 0.000231
30.942500 0.000231
30.952400 0.000231
30.962300 0.000231
30.972200 0.000230
30.982100 0.000230
30.992000 0.000230
31.001900 0.000230
31.011800 0.000230
31.021700 0.000230
31.031600 0.000230
31.041500 0.000229
31.051400 0.000229
31.061300 0.000229
31.071200 0.000229
31.081100 0.000229
31.091000 0.000229
31.100900 0.000228
31.110800 0.000228
31.120700 0.000228
31.130600 0.000228
31.140500 0.000228
31.150400 0.000228
31.160300 0.000227
31.170200 0.000227
31.180100 0.000227
31.190000 0.000227
31.199900 0.000227
31.209800 0.000227
31.219700 0.000227
31.229600 0.000226
31.239500 0.000226
31.249400 0.000226
31.259300 0.000226
31.269200 0.000226
31.279100 0.000226
31.289000 0.000225
31.298900 0.000225
31.308800 0.000225
31.318700 0.000225
31.328600 0.000225
31.338500 0.000225
31.348400 0.000225
31.358300 0.000224
31.368200 0.000224
31.378100 0.000224
31.388000 0.000224
31.397900 0.000224
31.407800 0.000224
31.417700 0.000224
31.427600 0.000223
31.437500 0.000223
31.447400 0.000223
31.457300 0.000223
31.467200 0.000223
31.477100 0.000223
31.487000 0.000222
31.496900 0.000222
31.506800 0.000222
31.516700 0.000222
31.526600 0.000222
31.536500 0.000222
31.546400 0.000222
31.556300 0.000221
31.566200 0.000221
31.576100 0.000221
31.586000 0.000221
31.595900 0.000221
31.605800 0.000221
31.615700 0.000221
31.625600 0.000220
31.635500 0.000220
31.645400 0.000220
31.655300 0.000220
31.665200 0.000220
31.675100 0.000220
31.685000 0.000220
31.694900 0.000219
31.704800 0.000219
31.714700 0.000219
31.724600 0.000219
31.734500 0.000219
31.744400 0.000219
31.754300 0.000218
31.764200 0.000218
31.774100 0.000218
31.784000 0.000218
31.793900 0.000218
31.803800 0.000218
31.813700 0.000218
31.823600 0.000217
31.833500 0.000217
31.843400 0.000217
31.853300 0.000217
31.863200 0.000217
31.873100 0.000217
31.883000 0.000217
31.892900 0.000216
31.902800 0.000216
31.912700 0.000216
31.922600 0.000216
31.932500 0.000216
31.942400 0.000216
31.952300 0.000216
31.962200 0.000215
31.972100 0.000215
31.982000 0.000215
31.991900 0.000215
32.001800 0.000215
32.011700 0.000215
32.021600 0.000215
32.031500 0.000214
32.041400 0.000214
32.051300 0.000214
32.061200 0.000214
32.071100 0.000214
32.081000 0.000214
32.090900 0.000214
32.100800 0.000213
32.110700 0.000213
32.120600 0.000213
32.130500 0.000213
32.140400 0.000213
32.150300 0.000213
32.160200 0.000213
32.170100 0.000212
32.180000 0.000212
32.189900 0.000212
32.199800 0.000212
32.209700 0.000212
32.219600 0.000212
32.229500 0.000212
32.239400 0.000212
32.249300 0.000211
32.259200 0.000211
32.269100 0.000211
32.279000 0.000211
32.288900 0.000211
32.298800 0.000211
32.308700 0.000211
32.318600 0.000210
32.328500 0.000210
32.338400 0.000210
32.348300 0.000210
32.358200 0.000210
32.368100 0.000210
32.378000 0.000210
32.387900 0.000209
32.397800 0.000209
32.407700 0.000209
32.417600 0.000209
32.427500 0.000209
32.437400 0.000209
32.447300 0.000209
32.457200 0.000209
32.467100 0.000208
32.477000 0.000208
32.486900 0.000208
32.496800 0.000208
32.506700 0.000208
32.516600 0.000208
32.526500 0.000208
32.536400 0.000207
32.546300 0.000207
32.556200 0.000207
32.566100 0.000207
32.576000 0.000207
32.585900 0.000207
32.595800 0.000207
32.605700 0.000206
32.615600 0.000206
32.625500 0.000206
32.635400 0.000206
32.645300 0.000206
32.655200 0.000206
32.665100 0.000206
32.675000 0.000206
32.684900 0.000205
32.694800 0.000205
32.704700 0.000205
32.714600 0.000205
32.724500 0.000205
32.734400 0.000205
32.744300 0.000205
32.754200 0.000205
32.764100 0.000204
32.774000 0.000204
32.783900 0.000204
32.793800 0.000204
32.803700 0.000204
32.813600 0.000204
32.823500 0.000204
32.833400 0.000203
32.843300 0.000203
32.853200 0.000203
32.863100 0.000203
32.873000 0.000203
32.882900 0.000203
32.892800 0.000203
32.902700 0.000203
32.912600 0.000202
32.922500 0.000202
32.932400 0.000202
32.942300 0.000202
32.952200 0.000202
32.962100 0.000202
32.972000 0.000202
32.981900 0.000202
32.991800 0.000201
33.001700 0.000201
33.011600 0.000201
33.021500 0.000201
33.031400 0.000201
33.041300 0.000201
33.051200 0.000201
33.061100 0.000200
33.071000 0.000200
33.080900 0.000200
33.090800 0.000200
33.100700 0.000200
33.110600 0.000200
33.120500 0.000200
33.130400 0.000200
33.140300 0.000199
33.150200 0.000199
33.160100 0.000199
33.170000 0.000199
33.179900 0.000199
33.189800 0.000199
33.199700 0.000199
33.209600 0.000199
33.219500 0.000198
33.229400 0.000198
33.239300 0.000198
33.249200 0.000198
33.259100 0.000198
33.269000 0.000198
33.278900 0.000198
33.288800 0.000198
33.298700 0.000197
33.308600 0.000197
33.318500 0.000197
33.328400 0.000197
33.338300 0.000197
33.348200 0.000197
33.358100 0.000197
33.368000 0.000197
33.377900 0.000196
33.387800 0.000196
33.397700 0.000196
33.407600 0.000196
33.417500 0.000196
33.427400 0.000196
33.437300 0.000196
33.447200 0.000196
33.457100 0.000195
33.467000 0.000195
33.476900 0.000195
33.486800 0.000195
33.496700 0.000195
33.506600 0.000195
33.516500 0.000195
33.526400 0.000195
33.536300 0.000195
33.546200 0.000194
33.556100 0.000194
33.566000 0.000194
33.575900 0.000194
33.585800 0.000194
33.595700 0.000194
33.605600 0.000194
33.615500 0.000194
33.625400 0.000193
33.635300 0.000193
33.645200 0.000193
33.655100 0.000193
33.665000 0.000193
33.674900 0.000193
33.684800 0.000193
33.694700 0.000193
33.704600 0.000192
33.714500 0.000192
33.724400 0.000192
33.734300 0.000192
33.744200 0.000192
33.754100 0.000192
33.764000 0.000192
33.773900 0.000192
33.783800 0.000192
33.793700 0.000191
33.803600 0.000191
33.813500 0.000191
33.823400 0.000191
33.833300 0.000191
33.843200 0.000191
33.853100 0.000191
33.863000 0.000191
33.872900 0.000190
33.882800 0.000190
33.892700 0.000190
33.902600 0.000190
33.912500 0.000190
33.922400 0.000190
33.932300 0.000190
33.942200 0.000190
33.952100 0.000190
33.962000 0.000189
33.971900 0.000189
33.981800 0.000189
33.991700 0.000189
34.001600 0.000189
34.011500 0.000189
34.021400 0.000189
34.031300 0.000189
34.041200 0.000188
34.051100 0.000188
34.061000 0.000188
34.070900 0.000188
34.080800 0.000188
34.090700 0.000188
34.100600 0.000188
34.110500 0.000188
34.120400 0.000188
34.130300 0.000187
34.140200 0.000187
34.150100 0.000187
34.160000 0.000187
34.169900 0.000187
34.179800 0.000187
34.189700 0.000187
34.199600 0.000187
34.209500 0.000186
34.219400 0.000186
34.229300 0.000186
34.239200 0.000186
34.249100 0.000186
34.259000 0.000186
34.268900 0.000186
34.278800 0.000186
34.288700 0.000186
34.298600 0.000185
34.308500 0.000185
34.318400 0.000185
34.328300 0.000185
34.338200 0.000185
34.348100 0.000185
34.358000 0.000185
34.367900 0.000185
34.377800 0.000185
34.387700 0.000184
34.397600 0.000184
34.407500 0.000184
34.417400 0.000184
34.427300 0.000184
34.437200 0.000184
34.447100 0.000184
34.457000 0.000184
34.466900 0.000184
34.476800 0.000183
34.486700 0.000183
34.496600 0.000183
34.506500 0.000183
34.516400 0.000183
34.526300 0.000183
34.536200 0.000183
34.546100 0.000183
34.556000 0.000183
34.565900 0.000182
34.575800 0.000182
34.585700 0.000182
34.595600 0.000182
34.605500 0.000182
34.615400 0.000182
34.625300 0.000182
34.635200 0.000182
34.645100 0.000182
34.655000 0.000181
34.664900 0.000181
34.674800 0.000181
34.684700 0.000181
34.694600 0.000181
34.704500 0.000181
34.714400 0.000181
34.724300 0.000181
34.734200 0.000181
34.744100 0.000180
34.754000 0.000180
34.763900 0.000180
34.773800 0.000180
34.783700 0.000180
34.793600 0.000180
34.803500 0.000180
34.813400 0.000180
34.823300 0.000180
34.833200 0.000180
34.843100 0.000179
34.853000 0.000179
34.862900 0.000179
34.872800 0.000179
34.882700 0.000179
34.892600 0.000179
34.902500 0.000179
34.912400 0.000179
34.922300 0.000179
34.932200 0.000178
34.942100 0.000178
34.952000 0.000178
34.961900 0.000178
34.971800 0.000178
34.981700 0.000178
34.991600 0.000178
35.001500 0.000178
35.011400 0.000178
35.021300 0.000177
35.031200 0.000177
35.041100 0.000177
35.051000 0.000177
35.060900 0.000177
35.070800 0.000177
35.080700 0.000177
35.090600 0.000177
35.100500 0.000177
35.110400 0.000177
35.120300 0.000176
35.130200 0.000176
35.140100 0.000176
35.150000 0.000176
35.159900 0.000176
35.169800 0.000176
35.179700 0.000176
35.189600 0.000176
35.199500 0.000176
35.209400 0.000175
35.219300 0.000175
35.229200 0.000175
35.239100 0.000175
35.249000 0.000175
35.258900 0.000175
35.268800 0.000175
35.278700 0.000175
35.288600 0.000175
35.298500 0.000175
35.308400 0.000174
35.318300 0.000174
35.328200 0.000174
35.338100 0.000174
35.348000 0.000174
35.357900 0.000174
35.367800 0.000174
35.377700 0.000174
35.387600 0.000174
35.397500 0.000174
35.407400 0.000173
35.417300 0.000173
35.427200 0.000173
35.437100 0.000173
35.447000 0.000173
35.456900 0.000173
35.466800 0.000173
35.476700 0.000173
35.486600 0.000173
35.496500 0.000173
35.506400 0.000172
35.516300 0.000172
35.526200 0.000172
35.536100 0.000172
35.546000 0.000172
35.555900 0.000172
35.565800 0.000172
35.575700 0.000172
35.585600 0.000172
35.595500 0.000172
35.605400 0.000171
35.615300 0.000171
35.625200 0.000171
35.635100 0.000171
35.645000 0.000171
35.654900 0.000171
35.664800 0.000171
35.674700 0.000171
35.684600 0.000171
35.694500 0.000171
35.704400 0.000170
35.714300 0.000170
35.724200 0.000170
35.734100 0.000170
35.744000 0.000170
35.753900 0.000170
35.763800 0.000170
35.773700 0.000170
35.783600 0.000170
35.793500 0.000170
35.803400 0.000169
35.813300 0.000169
35.823200 0.000169
35.833100 0.000169
35.843000 0.000169
35.852900 0.000169
35.862800 0.000169
35.872700 0.000169
35.882600 0.000169
35.892500 0.000169
35.902400 0.000168
35.912300 0.000168
35.922200 0.000168
35.932100 0.000168
35.942000 0.000168
35.951900 0.000168
35.961800 0.000168
35.971700 0.000168
35.981600 0.000168
35.991500 0.000168
36.001400 0.000167
36.011300 0.000167
36.021200 0.000167
36.031100 0.000167
36.041000 0.000167
36.050900 0.000167
36.060800 0.000167
36.070700 0.000167
36.080600 0.000167
36.090500 0.000167
36.100400 0.000166
36.110300 0.000166
36.120200 0.000166
36.130100 0.000166
36.140000 0.000166
36.149900 0.000166
36.159800 0.000166
36.169700 0.000166
36.179600 0.000166
36.189500 0.000166
36.199400 0.000166
36.209300 0.000165
36.219200 0.000165
36.229100 0.000165
36.239000 0.000165
36.248900 0.000165
36.258800 0.000165
36.268700 0.000165
36.278600 0.000165
36.288500 0.000165
36.298400 0.000165
36.308300 0.000165
36.318200 0.000164
36.328100 0.000164
36.338000 0.000164
36.347900 0.000164
36.357800 0.000164
36.367700 0.000164
36.377600 0.000164
36.387500 0.000164
36.397400 0.000164
36.407300 0.000164
36.417200 0.000163
36.427100 0.000163
36.437000 0.000163
36.446900 0.000163
36.456800 0.000163
36.466700 0.000163
36.476600 0.000163
36.486500 0.000163
36.496400 0.000163
36.506300 0.000163
36.516200 0.000163
36.526100 0.000162
36.536000 0.000162
36.545900 0.000162
36.555800 0.000162
36.565700 0.000162
36.575600 0.000162
36.585500 0.000162
36.595400 0.000162
36.605300 0.000162
36.615200 0.000162
36.625100 0.000162
36.635000 0.000161
36.644900 0.000161
36.654800 0.000161
36.664700 0.000161
36.674600 0.000161
36.684500 0.000161
36.694400 0.000161
36.704300 0.000161
36.714200 0.000161
36.724100 0.000161
36.734000 0.000161
36.743900 0.000160
36.753800 0.000160
36.763700 0.000160
36.773600 0.000160
36.783500 0.000160
36.793400 0.000160
36.803300 0.000160
36.813200 0.000160
36.823100 0.000160
36.833000 0.000160
36.842900 0.000160
36.852800 0.000159
36.862700 0.000159
36.872600 0.000159
36.882500 0.000159
36.892400 0.000159
36.902300 0.000159
36.912200 0.000159
36.922100 0.000159
36.932000 0.000159
36.941900 0.000159
36.951800 0.000159
36.961700 0.000158
36.971600 0.000158
36.981500 0.000158
36.991400 0.000158
37.001300 0.000158
37.011200 0.000158
37.021100 0.000158
37.031000 0.000158
37.040900 0.000158
37.050800 0.000158
37.060700 0.000158
37.070600 0.000157
37.080500 0.000157
37.090400 0.000157
37.100300 0.000157
37.110200 0.000157
37.120100 0.000157
37.130000 0.000157
37.139900 0.000157
37.149800 0.000157
37.159700 0.000157
37.169600 0.000157
37.179500 0.000157
37.189400 0.000156
37.199300 0.000156
37.209200 0.000156
37.219100 0.000156
37.229000 0.000156
37.238900 0.000156
37.248800 0.000156
37.258700 0.000156
37.268600 0.000156
37.278500 0.000156
37.288400 0.000156
37.298300 0.000155
37.308200 0.000155
37.318100 0.000155
37.328000 0.000155
37.337900 0.000155
37.347800 0.000155
37.357700 0.000155
37.367600 0.000155
37.377500 0.000155
37.387400 0.000155
37.397300 0.000155
37.407200 0.000155
37.417100 0.000154
37.427000 0.000154
37.436900 0.000154
37.446800 0.000154
37.456700 0.000154
37.466600 0.000154
37.476500 0.000154
37.486400 0.000154
37.496300 0.000154
37.506200 0.000154
37.516100 0.000154
37.526000 0.000154
37.535900 0.000153
37.545800 0.000153
37.555700 0.000153
37.565600 0.000153
37.575500 0.000153
37.585400 0.000153
37.595300 0.000153
37.605200 0.000153
37.615100 0.000153
37.625000 0.000153
37.634900 0.000153
37.644800 0.000152
37.654700 0.000152
37.664600 0.000152
37.674500 0.000152
37.684400 0.000152
37.694300 0.000152
37.704200 0.000152
37.714100 0.000152
37.724000 0.000152
37.733900 0.000152
37.743800 0.000152
37.753700 0.000152
37.763600 0.000151
37.773500 0.000151
37.783400 0.000151
37.793300 0.000151
37.803200 0.000151
37.813100 0.000151
37.823000 0.000151
37.832900 0.000151
37.842800 0.000151
37.852700 0.000151
37.862600 0.000151
37.872500 0.000151
37.882400 0.000150
37.892300 0.000150
37.902200 0.000150
37.912100 0.000150
37.922000 0.000150
37.931900 0.000150
37.941800 0.000150
37.951700 0.000150
37.961600 0.000150
37.971500 0.000150
37.981400 0.000150
37.991300 0.000150
38.001200 0.000150
38.011100 0.000149
38.021000 0.000149
38.030900 0.000149
38.040800 0.000149
38.050700 0.000149
38.060600 0.000149
38.070500 0.000149
38.080400 0.000149
38.090300 0.000149
38.100200 0.000149
38.110100 0.000149
38.120000 0.000149
38.129900 0.000148
38.139800 0.000148
38.149700 0.000148
38.159600 0.000148
38.169500 0.000148
38.179400 0.000148
38.189300 0.000148
38.199200 0.000148
38.209100 0.000148
38.219000 0.000148
38.228900 0.000148
38.238800 0.000148
38.248700 0.000147
38.258600 0.000147
38.268500 0.000147
38.278400 0.000147
38.288300 0.000147
38.298200 0.000147
38.308100 0.000147
38.318000 0.000147
38.327900 0.000147
38.337800 0.000147
38.347700 0.000147
38.357600 0.000147
38.367500 0.000147
38.377400 0.000146
38.387300 0.000146
38.397200 0.000146
38.407100 0.000146
38.417000 0.000146
38.426900 0.000146
38.436800 0.000146
38.446700 0.000146
38.456600 0.000146
38.466500 0.000146
38.476400 0.000146
38.486300 0.000146
38.496200 0.000146
38.506100 0.000145
38.516000 0.000145
38.525900 0.000145
38.535800 0.000145
38.545700 0.000145
38.555600 0.000145
38.565500 0.000145
38.575400 0.000145
38.585300 0.000145
38.595200 0.000145
38.605100 0.000145
38.615000 0.000145
38.624900 0.000145
38.634800 0.000144
38.644700 0.000144
38.654600 0.000144
38.664500 0.000144
38.674400 0.000144
38.684300 0.000144
38.694200 0.000144
38.704100 0.000144
38.714000 0.000144
38.723900 0.000144
38.733800 0.000144
38.743700 0.000144
38.753600 0.000144
38.763500 0.000143
38.773400 0.000143
38.783300 0.000143
38.793200 0.000143
38.803100 0.000143
38.813000 0.000143
38.822900 0.000143
38.832800 0.000143
38.842700 0.000143
38.852600 0.000143
38.862500 0.000143
38.872400 0.000143
38.882300 0.000143
38.892200 0.000142
38.902100 0.000142
38.912000 0.000142
38.921900 0.000142
38.931800 0.000142
38.941700 0.000142
38.951600 0.000142
38.961500 0.000142
38.971400 0.000142
38.981300 0.000142
38.991200 0.000142
39.001100 0.000142
39.011000 0.000142
39.020900 0.000141
39.030800 0.000141
39.040700 0.000141
39.050600 0.000141
39.060500 0.000141
39.070400 0.000141
39.080300 0.000141
39.090200 0.000141
39.100100 0.000141
39.110000 0.000141
39.119900 0.000141
39.129800 0.000141
39.139700 0.000141
39.149600 0.000141
39.159500 0.000140
39.169400 0.000140
39.179300 0.000140
39.189200 0.000140
39.199100 0.000140
39.209000 0.000140
39.218900 0.000140
39.228800 0.000140
39.238700 0.000140
39.248600 0.000140
39.258500 0.000140
39.268400 0.000140
39.278300 0.000140
39.288200 0.000139
39.298100 0.000139
39.308000 0.000139
39.317900 0.000139
39.327800 0.000139
39.337700 0.000139
39.347600 0.000139
39.357500 0.000139
39.367400 0.000139
39.377300 0.000139
39.387200 0.000139
39.397100 0.000139
39.407000 0.000139
39.416900 0.000139
39.426800 0.000138
39.436700 0.000138
39.446600 0.000138
39.456500 0.000138
39.466400 0.000138
39.476300 0.000138
39.486200 0.000138
39.496100 0.000138
39.506000 0.000138
39.515900 0.000138
39.525800 0.000138
39.535700 0.000138
39.545600 0.000138
39.555500 0.000138
39.565400 0.000137
39.575300 0.000137
39.585200 0.000137
39.595100 0.000137
39.605000 0.000137
39.614900 0.000137
39.624800 0.000137
39.634700 0.000137
39.644600 0.000137
39.654500 0.000137
39.664400 0.000137
39.674300 0.000137
39.684200 0.000137
39.694100 0.000137
39.704000 0.000136
39.713900 0.000136
39.723800 0.000136
39.733700 0.000136
39.743600 0.000136
39.753500 0.000136
39.763400 0.000136
39.773300 0.000136
39.783200 0.000136
39.793100 0.000136
39.803000 0.000136
39.812900 0.000136
39.822800 0.000136
39.832700 0.000136
39.842600 0.000135
39.852500 0.000135
39.862400 0.000135
39.872300 0.000135
39.882200 0.000135
39.892100 0.000135
39.902000 0.000135
39.911900 0.000135
39.921800 0.000135
39.931700 0.000135
39.941600 0.000135
39.951500 0.000135
39.961400 0.000135
39.971300 0.000135
39.981200 0.000134
39.991100 0.000134
40.001000 0.000134
40.010900 0.000134
40.020800 0.000134
40.030700 0.000134
40.040600 0.000134
40.050500 0.000134
40.060400 0.000134
40.070300 0.000134
40.080200 0.000134
40.090100 0.000134
40.100000 0.000134
40.109900 0.000134
40.119800 0.000134
40.129700 0.000133
40.139600 0.000133
40.149500 0.000133
40.159400 0.000133
40.169300 0.000133
40.179200 0.000133
40.189100 0.000133
40.199000 0.000133
40.208900 0.000133
40.218800 0.000133
40.228700 0.000133
40.238600 0.000133
40.248500 0.000133
40.258400 0.000133
40.268300 0.000132
40.278200 0.000132
40.288100 0.000132
40.298000 0.000132
40.307900 0.000132
40.317800 0.000132
40.327700 0.000132
40.337600 0.000132
40.347500 0.000132
40.357400 0.000132
40.367300 0.000132
40.377200 0.000132
40.387100 0.000132
40.397000 0.000132
40.406900 0.000132
40.416800 0.000131
40.426700 0.000131
40.436600 0.000131
40.446500 0.000131
40.456400 0.000131
40.466300 0.000131
40.476200 0.000131
40.486100 0.000131
40.496000 0.000131
40.505900 0.000131
40.515800 0.000131
40.525700 0.000131
40.535600 0.000131
40.545500 0.000131
40.555400 0.000131
40.565300 0.000130
40.575200 0.000130
40.585100 0.000130
40.595000 0.000130
40.604900 0.000130
40.614800 0.000130
40.624700 0.000130
40.634600 0.000130
40.644500 0.000130
40.654400 0.000130
40.664300 0.000130
40.674200 0.000130
40.684100 0.000130
40.694000 0.000130
40.703900 0.000130
40.713800 0.000129
40.723700 0.000129
40.733600 0.000129
40.743500 0.000129
40.753400 0.000129
40.763300 0.000129
40.773200 0.000129
40.783100 0.000129
40.793000 0.000129
40.802900 0.000129
40.812800 0.000129
40.822700 0.000129
40.832600 0.000129
40.842500 0.000129
40.852400 0.000129
40.862300 0.000129
40.872200 0.000128
40.882100 0.000128
40.892000 0.000128
40.901900 0.000128
40.911800 0.000128
40.921700 0.000128
40.931600 0.000128
40.941500 0.000128
40.951400 0.000128
40.961300 0.000128
40.971200 0.000128
40.981100 0.000128
40.991000 0.000128
41.000900 0.000128
41.010800 0.000128
41.020700 0.000127
41.030600 0.000127
41.040500 0.000127
41.050400 0.000127
41.060300 0.000127
41.070200 0.000127
41.080100 0.000127
41.090000 0.000127
41.099900 0.000127
41.109800 0.000127
41.119700 0.000127
41.129600 0.000127
41.139500 0.000127
41.149400 0.000127
41.159300 0.000127
41.169200 0.000127
41.179100 0.000126
41.189000 0.000126
41.198900 0.000126
41.208800 0.000126
41.218700 0.000126
41.228600 0.000126
41.238500 0.000126
41.248400 0.000126
41.258300 0.000126
41.268200 0.000126
41.278100 0.000126
41.288000 0.000126
41.297900 0.000126
41.307800 0.000126
41.317700 0.000126
41.327600 0.000126
41.337500 0.000125
41.347400 0.000125
41.357300 0.000125
41.367200 0.000125
41.377100 0.000125
41.387000 0.000125
41.396900 0.000125
41.406800 0.000125
41.416700 0.000125
41.426600 0.000125
41.436500 0.000125
41.446400 0.000125
41.456300 0.000125
41.466200 0.000125
41.476100 0.000125
41.486000 0.000125
41.495900 0.000124
41.505800 0.000124
41.515700 0.000124
41.525600 0.000124
41.535500 0.000124
41.545400 0.000124
41.555300 0.000124
41.565200 0.000124
41.575100 0.000124
41.585000 0.000124
41.594900 0.000124
41.604800 0.000124
41.614700 0.000124
41.624600 0.000124
41.634500 0.000124
41.644400 0.000124
41.654300 0.000123
41.664200 0.000123
41.674100 0.000123
41.684000 0.000123
41.693900 0.000123
41.703800 0.000123
41.713700 0.000123
41.723600 0.000123
41.733500 0.000123
41.743400 0.000123
41.753300 0.000123
41.763200 0.000123
41.773100 0.000123
41.783000 0.000123
41.792900 0.000123
41.802800 0.000123
41.812700 0.000123
41.822600 0.000122
41.832500 0.000122
41.842400 0.000122
41.852300 0.000122
41.862200 0.000122
41.872100 0.000122
41.882000 0.000122
41.891900 0.000122
41.901800 0.000122
41.911700 0.000122
41.921600 0.000122
41.931500 0.000122
41.941400 0.000122
41.951300 0.000122
41.961200 0.000122
41.971100 0.000122
41.981000 0.000122
41.990900 0.000121
42.000800 0.000121
42.010700 0.000121
42.020600 0.000121
42.030500 0.000121
42.040400 0.000121
42.050300 0.000121
42.060200 0.000121
42.070100 0.000121
42.080000 0.000121
42.089900 0.000121
42.099800 0.000121
42.109700 0.000121
42.119600 0.000121
42.129500 0.000121
42.139400 0.000121
42.149300 0.000121
42.159200 0.000120
42.169100 0.000120
42.179000 0.000120
42.188900 0.000120
42.198800 0.000120
42.208700 0.000120
42.218600 0.000120
42.228500 0.000120
42.238400 0.000120
42.248300 0.000120
42.258200 0.000120
42.268100 0.000120
42.278000 0.000120
42.287900 0.000120
42.297800 0.000120
42.307700 0.000120
42.317600 0.000120
42.327500 0.000119
42.337400 0.000119
42.347300 0.000119
42.357200 0.000119
42.367100 0.000119
42.377000 0.000119
42.386900 0.000119
42.396800 0.000119
42.406700 0.000119
42.416600 0.000119
42.426500 0.000119
42.436400 0.000119
42.446300 0.000119
42.456200 0.000119
42.466100 0.000119
42.476000 0.000119
42.485900 0.000119
42.495800 0.000118
42.505700 0.000118
42.515600 0.000118
42.525500 0.000118
42.535400 0.000118
42.545300 0.000118
42.555200 0.000118
42.565100 0.000118
42.575000 0.000118
42.584900 0.000118
42.594800 0.000118
42.604700 0.000118
42.614600 0.000118
42.624500 0.000118
42.634400 0.000118
42.644300 0.000118
42.654200 0.000118
42.664100 0.000118
42.674000 0.000117
42.683900 0.000117
42.693800 0.000117
42.703700 0.000117
42.713600 0.000117
42.723500 0.000117
42.733400 0.000117
42.743300 0.000117
42.753200 0.000117
42.763100 0.000117
42.773000 0.000117
42.782900 0.000117
42.792800 0.000117
42.802700 0.000117
42.812600 0.000117
42.822500 0.000117
42.832400 0.000117
42.842300 0.000117
42.852200 0.000116
42.862100 0.000116
42.872000 0.000116
42.881900 0.000116
42.891800 0.000116
42.901700 0.000116
42.911600 0.000116
42.921500 0.000116
42.931400 0.000116
42.941300 0.000116
42.951200 0.000116
42.961100 0.000116
42.971000 0.000116
42.980900 0.000116
42.990800 0.000116
43.000700 0.000116
43.010600 0.000116
43.020500 0.000116
43.030400 0.000115
43.040300 0.000115
43.050200 0.000115
43.060100 0.000115
43.070000 0.000115
43.079900 0.000115
43.089800 0.000115
43.099700 0.000115
43.109600 0.000115
43.119500 0.000115
43.129400 0.000115
43.139300 0.000115
43.149200 0.000115
43.159100 0.000115
43.169000 0.000115
43.178900 0.000115
43.188800 0.000115
43.198700 0.000115
43.208600 0.000114
43.218500 0.000114
43.228400 0.000114
43.238300 0.000114
43.248200 0.000114
43.258100 0.000114
43.268000 0.000114
43.277900 0.000114
43.287800 0.000114
43.297700 0.000114
43.307600 0.000114
43.317500 0.000114
43.327400 0.000114
43.337300 0.000114
43.347200 0.000114
43.357100 0.000114
43.367000 0.000114
43.376900 0.000114
43.386800 0.000113
43.396700 0.000113
43.406600 0.000113
43.416500 0.000113
43.426400 0.000113
43.436300 0.000113
43.446200 0.000113
43.456100 0.000113
43.466000 0.000113
43.475900 0.000113
43.485800 0.000113
43.495700 0.000113
43.505600 0.000113
43.515500 0.000113
43.525400 0.000113
43.535300 0.000113
43.545200 0.000113
43.555100 0.000113
43.565000 0.000113
43.574900 0.000112
43.584800 0.000112
43.594700 0.000112
43.604600 0.000112
43.614500 0.000112
43.624400 0.000112
43.634300 0.000112
43.644200 0.000112
43.654100 0.000112
43.664000 0.000112
43.673900 0.000112
43.683800 0.000112
43.693700 0.000112
43.703600 0.000112
43.713500 0.000112
43.723400 0.000112
43.733300 0.000112
43.743200 0.000112
43.753100 0.000112
43.763000 0.000111
43.772900 0.000111
43.782800 0.000111
43.792700 0.000111
43.802600 0.000111
43.812500 0.000111
43.822400 0.000111
43.832300 0.000111
43.842200 0.000111
43.852100 0.000111
43.862000 0.000111
43.871900 0.000111
43.881800 0.000111
43.891700 0.000111
43.901600 0.000111
43.911500 0.000111
43.921400 0.000111
43.931300 0.000111
43.941200 0.000111
43.951100 0.000111
43.961000 0.000110
43.970900 0.000110
43.980800 0.000110
43.990700 0.000110
44.000600 0.000110
44.010500 0.000110
44.020400 0.000110
44.030300 0.000110
44.040200 0.000110
44.050100 0.000110
44.060000 0.000110
44.069900 0.000110
44.079800 0.000110
44.089700 0.000110
44.099600 0.000110
44.109500 0.000110
44.119400 0.000110
44.129300 0.000110
44.139200 0.000110
44.149100 0.000109
44.159000 0.000109
44.168900 0.000109
44.178800 0.000109
44.188700 0.000109
44.198600 0.000109
44.208500 0.000109
44.218400 0.000109
44.228300 0.000109
44.238200 0.000109
44.248100 0.000109
44.258000 0.000109
44.267900 0.000109
44.277800 0.000109
44.287700 0.000109
44.297600 0.000109
44.307500 0.000109
44.317400 0.000109
44.327300 0.000109
44.337200 0.000109
44.347100 0.000108
44.357000 0.000108
44.366900 0.000108
44.376800 0.000108
44.386700 0.000108
44.396600 0.000108
44.406500 0.000108
44.416400 0.000108
44.426300 0.000108
44.436200 0.000108
44.446100 0.000108
44.456000 0.000108
44.465900 0.000108
44.475800 0.000108
44.485700 0.000108
44.495600 0.000108
44.505500 0.000108
44.515400 0.000108
44.525300 0.000108
44.535200 0.000108
44.545100 0.000107
44.555000 0.000107
44.564900 0.000107
44.574800 0.000107
44.584700 0.000107
44.594600 0.000107
44.604500 0.000107
44.614400 0.000107
44.624300 0.000107
44.634200 0.000107
44.644100 0.000107
44.654000 0.000107
44.663900 0.000107
44.673800 0.000107
44.683700 0.000107
44.693600 0.000107
44.703500 0.000107
44.713400 0.000107
44.723300 0.000107
44.733200 0.000107
44.743100 0.000107
44.753000 0.000106
44.762900 0.000106
44.772800 0.000106
44.782700 0.000106
44.792600 0.000106
44.802500 0.000106
44.812400 0.000106
44.822300 0.000106
44.832200 0.000106
44.842100 0.000106
44.852000 0.000106
44.861900 0.000106
44.871800 0.000106
44.881700 0.000106
44.891600 0.000106
44.901500 0.000106
44.911400 0.000106
44.921300 0.000106
44.931200 0.000106
44.941100 0.000106
44.951000 0.000105
44.960900 0.000105
44.970800 0.000105
44.980700 0.000105
44.990600 0.000105
45.000500 0.000105
45.010400 0.000105
45.020300 0.000105
45.030200 0.000105
45.040100 0.000105
45.050000 0.000105
45.059900 0.000105
45.069800 0.000105
45.079700 0.000105
45.089600 0.000105
45.099500 0.000105
45.109400 0.000105
45.119300 0.000105
45.129200 0.000105
45.139100 0.000105
45.149000 0.000105
45.158900 0.000104
45.168800 0.000104
45.178700 0.000104
45.188600 0.000104
45.198500 0.000104
45.208400 0.000104
45.218300 0.000104
45.228200 0.000104
45.238100 0.000104
45.248000 0.000104
45.257900 0.000104
45.267800 0.000104
45.277700 0.000104
45.287600 0.000104
45.297500 0.000104
45.307400 0.000104
45.317300 0.000104
45.327200 0.000104
45.337100 0.000104
45.347000 0.000104
45.356900 0.000104
45.366800 0.000104
45.376700 0.000103
45.386600 0.000103
45.396500 0.000103
45.406400 0.000103
45.416300 0.000103
45.426200 0.000103
45.436100 0.000103
45.446000 0.000103
45.455900 0.000103
45.465800 0.000103
45.475700 0.000103
45.485600 0.000103
45.495500 0.000103
45.505400 0.000103
45.515300 0.000103
45.525200 0.000103
45.535100 0.000103
45.545000 0.000103
45.554900 0.000103
45.564800 0.000103
45.574700 0.000103
45.584600 0.000102
45.594500 0.000102
45.604400 0.000102
45.614300 0.000102
45.624200 0.000102
45.634100 0.000102
45.644000 0.000102
45.653900 0.000102
45.663800 0.000102
45.673700 0.000102
45.683600 0.000102
45.693500 0.000102
45.703400 0.000102
45.713300 0.000102
45.723200 0.000102
45.733100 0.000102
45.743000 0.000102
45.752900 0.000102
45.762800 0.000102
45.772700 0.000102
45.782600 0.000102
45.792500 0.000102
45.802400 0.000101
45.812300 0.000101
45.822200 0.000101
45.832100 0.000101
45.842000 0.000101
45.851900 0.000101
45.861800 0.000101
45.871700 0.000101
45.881600 0.000101
45.891500 0.000101
45.901400 0.000101
45.911300 0.000101
45.921200 0.000101
45.931100 0.000101
45.941000 0.000101
45.950900 0.000101
45.960800 0.000101
45.970700 0.000101
45.980600 0.000101
45.990500 0.000101
46.000400 0.000101
46.010300 0.000101
46.020200 0.000100
46.030100 0.000100
46.040000 0.000100
46.049900 0.000100
46.059800 0.000100
46.069700 0.000100
46.079600 0.000100
46.089500 0.000100
46.099400 0.000100
46.109300 0.000100
46.119200 0.000100
46.129100 0.000100
46.139000 0.000100
46.148900 0.000100
46.158800 0.000100
46.168700 0.000100
46.178600 0.000100
46.188500 0.000100
46.198400 0.000100
46.208300 0.000100
46.218200 0.000100
46.228100 0.000100
46.238000 0.000100
46.247900 0.000099
46.257800 0.000099
46.267700 0.000099
46.277600 0.000099
46.287500 0.000099
46.297400 0.000099
46.307300 0.000099
46.317200 0.000099
46.327100 0.000099
46.337000 0.000099
46.346900 0.000099
46.356800 0.000099
46.366700 0.000099
46.376600 0.000099
46.386500 0.000099
46.396400 0.000099
46.406300 0.000099
46.416200 0.000099
46.426100 0.000099
46.436000 0.000099
46.445900 0.000099
46.455800 0.000099
46.465700 0.000099
46.475600 0.000098
46.485500 0.000098
46.495400 0.000098
46.505300 0.000098
46.515200 0.000098
46.525100 0.000098
46.535000 0.000098
46.544900 0.000098
46.554800 0.000098
46.564700 0.000098
46.574600 0.000098
46.584500 0.000098
46.594400 0.000098
46.604300 0.000098
46.614200 0.000098
46.624100 0.000098
46.634000 0.000098
46.643900 0.000098
46.653800 0.000098
46.663700 0.000098
46.673600 0.000098
46.683500 0.000098
46.693400 0.000098
46.703300 0.000097
46.713200 0.000097
46.723100 0.000097
46.733000 0.000097
46.742900 0.000097
46.752800 0.000097
46.762700 0.000097
46.772600 0.000097
46.782500 0.000097
46.792400 0.000097
46.802300 0.000097
46.812200 0.000097
46.822100 0.000097
46.832000 0.000097
46.841900 0.000097
46.851800 0.000097
46.861700 0.000097
46.871600 0.000097
46.881500 0.000097
46.891400 0.000097
46.901300 0.000097
46.911200 0.000097
46.921100 0.000097
46.931000 0.000097
46.940900 0.000096
46.950800 0.000096
46.960700 0.000096
46.970600 0.000096
46.980500 0.000096
46.990400 0.000096
47.000300 0.000096
47.010200 0.000096
47.020100 0.000096
47.030000 0.000096
47.039900 0.000096
47.049800 0.000096
47.059700 0.000096
47.069600 0.000096
47.079500 0.000096
47.089400 0.000096
47.099300 0.000096
47.109200 0.000096
47.119100 0.000096
47.129000 0.000096
47.138900 0.000096
47.148800 0.000096
47.158700 0.000096
47.168600 0.000096
47.178500 0.000095
47.188400 0.000095
47.198300 0.000095
47.208200 0.000095
47.218100 0.000095
47.228000 0.000095
47.237900 0.000095
47.247800 0.000095
47.257700 0.000095
47.267600 0.000095
47.277500 0.000095
47.287400 0.000095
47.297300 0.000095
47.307200 0.000095
47.317100 0.000095
47.327000 0.000095
47.336900 0.000095
47.346800 0.000095
47.356700 0.000095
47.366600 0.000095
47.376500 0.000095
47.386400 0.000095
47.396300 0.000095
47.406200 0.000095
47.416100 0.000095
47.426000 0.000094
47.435900 0.000094
47.445800 0.000094
47.455700 0.000094
47.465600 0.000094
47.475500 0.000094
47.485400 0.000094
47.495300 0.000094
47.505200 0.000094
47.515100 0.000094
47.525000 0.000094
47.534900 0.000094
47.544800 0.000094
47.554700 0.000094
47.564600 0.000094
47.574500 0.000094
47.584400 0.000094
47.594300 0.000094
47.604200 0.000094
47.614100 0.000094
47.624000 0.000094
47.633900 0.000094
47.643800 0.000094
47.653700 0.000094
47.663600 0.000093
47.673500 0.000093
47.683400 0.000093
47.693300 0.000093
47.703200 0.000093
47.713100 0.000093
47.723000 0.000093
47.732900 0.000093
47.742800 0.000093
47.752700 0.000093
47.762600 0.000093
47.772500 0.000093
47.782400 0.000093
47.792300 0.000093
47.802200 0.000093
47.812100 0.000093
47.822000 0.000093
47.831900 0.000093
47.841800 0.000093
47.851700 0.000093
47.861600 0.000093
47.871500 0.000093
47.881400 0.000093
47.891300 0.000093
47.901200 0.000093
47.911100 0.000093
47.921000 0.000092
47.930900 0.000092
47.940800 0.000092
47.950700 0.000092
47.960600 0.000092
47.970500 0.000092
47.980400 0.000092
47.990300 0.000092
48.000200 0.000092
48.010100 0.000092
48.020000 0.000092
48.029900 0.000092
48.039800 0.000092
48.049700 0.000092
48.059600 0.000092
48.069500 0.000092
48.079400 0.000092
48.089300 0.000092
48.099200 0.000092
48.109100 0.000092
48.119000 0.000092
48.128900 0.000092
48.138800 0.000092
48.148700 0.000092
48.158600 0.000092
48.168500 0.000091
48.178400 0.000091
48.188300 0.000091
48.198200 0.000091
48.208100 0.000091
48.218000 0.000091
48.227900 0.000091
48.237800 0.000091
48.247700 0.000091
48.257600 0.000091
48.267500 0.000091
48.277400 0.000091
48.287300 0.000091
48.297200 0.000091
48.307100 0.000091
48.317000 0.000091
48.326900 0.000091
48.336800 0.000091
48.346700 0.000091
48.356600 0.000091
48.366500 0.000091
48.376400 0.000091
48.386300 0.000091
48.396200 0.000091
48.406100 0.000091
48.416000 0.000091
48.425900 0.000090
48.435800 0.000090
48.445700 0.000090
48.455600 0.000090
48.465500 0.000090
48.475400 0.000090
48.485300 0.000090
48.495200 0.000090
48.505100 0.000090
48.515000 0.000090
48.524900 0.000090
48.534800 0.000090
48.544700 0.000090
48.554600 0.000090
48.564500 0.000090
48.574400 0.000090
48.584300 0.000090
48.594200 0.000090
48.604100 0.000090
48.614000 0.000090
48.623900 0.000090
48.633800 0.000090
48.643700 0.000090
48.653600 0.000090
48.663500 0.000090
48.673400 0.000090
48.683300 0.000090
48.693200 0.000089
48.703100 0.000089
48.713000 0.000089
48.722900 0.000089
48.732800 0.000089
48.742700 0.000089
48.752600 0.000089
48.762500 0.000089
48.772400 0.000089
48.782300 0.000089
48.792200 0.000089
48.802100 0.000089
48.812000 0.000089
48.821900 0.000089
48.831800 0.000089
48.841700 0.000089
48.851600 0.000089
48.861500 0.000089
48.871400 0.000089
48.881300 0.000089
48.891200 0.000089
48.901100 0.000089
48.911000 0.000089
48.920900 0.000089
48.930800 0.000089
48.940700 0.000089
48.950600 0.000089
48.960500 0.000088
48.970400 0.000088
48.980300 0.000088
48.990200 0.000088
49.000100 0.000088
49.010000 0.000088
49.019900 0.000088
49.029800 0.000088
49.039700 0.000088
49.049600 0.000088
49.059500 0.000088
49.069400 0.000088
49.079300 0.000088
49.089200 0.000088
49.099100 0.000088
49.109000 0.000088
49.118900 0.000088
49.128800 0.000088
49.138700 0.000088
49.148600 0.000088
49.158500 0.000088
49.168400 0.000088
49.178300 0.000088
49.188200 0.000088
49.198100 0.000088
49.208000 0.000088
49.217900 0.000088
49.227800 0.000087
49.237700 0.000087
49.247600 0.000087
49.257500 0.000087
49.267400 0.000087
49.277300 0.000087
49.287200 0.000087
49.297100 0.000087
49.307000 0.000087
49.316900 0.000087
49.326800 0.000087
49.336700 0.000087
49.346600 0.000087
49.356500 0.000087
49.366400 0.000087
49.376300 0.000087
49.386200 0.000087
49.396100 0.000087
49.406000 0.000087
49.415900 0.000087
49.425800 0.000087
49.435700 0.000087
49.445600 0.000087
49.455500 0.000087
49.465400 0.000087
49.475300 0.000087
49.485200 0.000087
49.495100 0.000087
49.505000 0.000086
49.514900 0.000086
49.524800 0.000086
49.534700 0.000086
49.544600 0.000086
49.554500 0.000086
49.564400 0.000086
49.574300 0.000086
49.584200 0.000086
49.594100 0.000086
49.604000 0.000086
49.613900 0.000086
49.623800 0.000086
49.633700 0.000086
49.643600 0.000086
49.653500 0.000086
49.663400 0.000086
49.673300 0.000086
49.683200 0.000086
49.693100 0.000086
49.703000 0.000086
49.712900 0.000086
49.722800 0.000086
49.732700 0.000086
49.742600 0.000086
49.752500 0.000086
49.762400 0.000086
49.772300 0.000086
49.782200 0.000086
49.792100 0.000085
49.802000 0.000085
49.811900 0.000085
49.821800 0.000085
49.831700 0.000085
49.841600 0.000085
49.851500 0.000085
49.861400 0.000085
49.871300 0.000085
49.881200 0.000085
49.891100 0.000085
49.901000 0.000085
49.910900 0.000085
49.920800 0.000085
49.930700 0.000085
49.940600 0.000085
49.950500 0.000085
49.960400 0.000085
49.970300 0.000085
49.980200 0.000085
49.990100 0.000085
50.000000 0.000085
