# Random transverse-field Ising model
# L=22, J=1=gamma, W_J=0.2, W=3.5
# High-T dynamical energy conductivity sigma^E(omega); via MCLM
# omega/J sigma^E(omega)

0.000000 0.018663
0.000250 0.018494
0.000500 0.018180
0.000750 0.018094
0.001000 0.018433
0.001250 0.019067
0.001500 0.019610
0.001750 0.019774
0.002000 0.019707
0.002250 0.019835
0.002500 0.020424
0.002750 0.021341
0.003000 0.022119
0.003250 0.022364
0.003500 0.022203
0.003750 0.022149
0.004000 0.022564
0.004250 0.023339
0.004500 0.023996
0.004750 0.024146
0.005000 0.023933
0.005250 0.023884
0.005500 0.024366
0.005750 0.025244
0.006000 0.025964
0.006250 0.026086
0.006500 0.025813
0.006750 0.025763
0.007000 0.026312
0.007250 0.027249
0.007500 0.027939
0.007750 0.027953
0.008000 0.027584
0.008250 0.027512
0.008500 0.028102
0.008750 0.029095
0.009000 0.029815
0.009250 0.029821
0.009500 0.029397
0.009750 0.029229
0.010000 0.029658
0.010250 0.030337
0.010500 0.030551
0.010750 0.029994
0.011000 0.029150
0.011250 0.028761
0.011500 0.029157
0.011750 0.030024
0.012000 0.030633
0.012250 0.030554
0.012500 0.030182
0.012750 0.030247
0.013000 0.031047
0.013250 0.032208
0.013500 0.032989
0.013750 0.032992
0.014000 0.032596
0.014250 0.032566
0.014500 0.033298
0.014750 0.034462
0.015000 0.035278
0.015250 0.035341
0.015500 0.035128
0.015750 0.035457
0.016000 0.036636
0.016250 0.038140
0.016500 0.038997
0.016750 0.038788
0.017000 0.038148
0.017250 0.038049
0.017500 0.038822
0.017750 0.039901
0.018000 0.040371
0.018250 0.039984
0.018500 0.039487
0.018750 0.039829
0.019000 0.041303
0.019250 0.043304
0.019500 0.044752
0.019750 0.045129
0.020000 0.045070
0.020250 0.045555
0.020500 0.046714
0.020750 0.047598
0.021000 0.047159
0.021250 0.045511
0.021500 0.043843
0.021750 0.043190
0.022000 0.043605
0.022250 0.044204
0.022500 0.043978
0.022750 0.042883
0.023000 0.041882
0.023250 0.041898
0.023500 0.043030
0.023750 0.044475
0.024000 0.045180
0.024250 0.045009
0.024500 0.044915
0.024750 0.045777
0.025000 0.047429
0.025250 0.048663
0.025500 0.048391
0.025750 0.046983
0.026000 0.045828
0.026250 0.045837
0.026500 0.046773
0.026750 0.047548
0.027000 0.047302
0.027250 0.046388
0.027500 0.045937
0.027750 0.046648
0.028000 0.048138
0.028250 0.049211
0.028500 0.049058
0.028750 0.048253
0.029000 0.048025
0.029250 0.048908
0.029500 0.050284
0.029750 0.050983
0.030000 0.050471
0.030250 0.049384
0.030500 0.048865
0.030750 0.049488
0.031000 0.050773
0.031250 0.051618
0.031500 0.051352
0.031750 0.050396
0.032000 0.049873
0.032250 0.050526
0.032500 0.051987
0.032750 0.053006
0.033000 0.052718
0.033250 0.051688
0.033500 0.051219
0.033750 0.051925
0.034000 0.053227
0.034250 0.053961
0.034500 0.053564
0.034750 0.052670
0.035000 0.052467
0.035250 0.053503
0.035500 0.055047
0.035750 0.055609
0.036000 0.054567
0.036250 0.052968
0.036500 0.052247
0.036750 0.052813
0.037000 0.053833
0.037250 0.054053
0.037500 0.053148
0.037750 0.052087
0.038000 0.052020
0.038250 0.053152
0.038500 0.054577
0.038750 0.055144
0.039000 0.054759
0.039250 0.054526
0.039500 0.055492
0.039750 0.057564
0.040000 0.059425
0.040250 0.059631
0.040500 0.058174
0.040750 0.056544
0.041000 0.056218
0.041250 0.057516
0.041500 0.059447
0.041750 0.060495
0.042000 0.060253
0.042250 0.059928
0.042500 0.060825
0.042750 0.062963
0.043000 0.065034
0.043250 0.065608
0.043500 0.064599
0.043750 0.063348
0.044000 0.063224
0.044250 0.064312
0.044500 0.065312
0.044750 0.064883
0.045000 0.063283
0.045250 0.062091
0.045500 0.062544
0.045750 0.064568
0.046000 0.066935
0.046250 0.068349
0.046500 0.068766
0.046750 0.069484
0.047000 0.071850
0.047250 0.075917
0.047500 0.080156
0.047750 0.082540
0.048000 0.082467
0.048250 0.081423
0.048500 0.081218
0.048750 0.081890
0.049000 0.081727
0.049250 0.079346
0.049500 0.075511
0.049750 0.072338
0.050000 0.071183
0.050250 0.071696
0.050500 0.072253
0.050750 0.071572
0.051000 0.070217
0.051250 0.069886
0.051500 0.071587
0.051750 0.074684
0.052000 0.077164
0.052250 0.077437
0.052500 0.076224
0.052750 0.075531
0.053000 0.076234
0.053250 0.077377
0.053500 0.077379
0.053750 0.075821
0.054000 0.073965
0.054250 0.073536
0.054500 0.075146
0.054750 0.077704
0.055000 0.079203
0.055250 0.078719
0.055500 0.077474
0.055750 0.077317
0.056000 0.078685
0.056250 0.080144
0.056500 0.079858
0.056750 0.077750
0.057000 0.075645
0.057250 0.075309
0.057500 0.076926
0.057750 0.078969
0.058000 0.079504
0.058250 0.078272
0.058500 0.076957
0.058750 0.077175
0.059000 0.078832
0.059250 0.080195
0.059500 0.079609
0.059750 0.077352
0.060000 0.075332
0.060250 0.075188
0.060500 0.076981
0.060750 0.079168
0.061000 0.079893
0.061250 0.078975
0.061500 0.078143
0.061750 0.079186
0.062000 0.082337
0.062250 0.085996
0.062500 0.087982
0.062750 0.087868
0.063000 0.087426
0.063250 0.088289
0.063500 0.090046
0.063750 0.090792
0.064000 0.089247
0.064250 0.086124
0.064500 0.083480
0.064750 0.082811
0.065000 0.083728
0.065250 0.084261
0.065500 0.082884
0.065750 0.080343
0.066000 0.078692
0.066250 0.079080
0.066500 0.080822
0.066750 0.082080
0.067000 0.081678
0.067250 0.080338
0.067500 0.079826
0.067750 0.081011
0.068000 0.082841
0.068250 0.083196
0.068500 0.081265
0.068750 0.078641
0.069000 0.077577
0.069250 0.079057
0.069500 0.082204
0.069750 0.084723
0.070000 0.084770
0.070250 0.082944
0.070500 0.081424
0.070750 0.081477
0.071000 0.082411
0.071250 0.082582
0.071500 0.081223
0.071750 0.079225
0.072000 0.078230
0.072250 0.078999
0.072500 0.080650
0.072750 0.081446
0.073000 0.080588
0.073250 0.079155
0.073500 0.079031
0.073750 0.081106
0.074000 0.084428
0.074250 0.086754
0.074500 0.086662
0.074750 0.085237
0.075000 0.084766
0.075250 0.086287
0.075500 0.088651
0.075750 0.089614
0.076000 0.088432
0.076250 0.086884
0.076500 0.087155
0.076750 0.089658
0.077000 0.092574
0.077250 0.093260
0.077500 0.090996
0.077750 0.087815
0.078000 0.086104
0.078250 0.086350
0.078500 0.086953
0.078750 0.085961
0.079000 0.083442
0.079250 0.081407
0.079500 0.081579
0.079750 0.083988
0.080000 0.086958
0.080250 0.088376
0.080500 0.087750
0.080750 0.086697
0.081000 0.087096
0.081250 0.089114
0.081500 0.090907
0.081750 0.090451
0.082000 0.088017
0.082250 0.085919
0.082500 0.086058
0.082750 0.088443
0.083000 0.091303
0.083250 0.092576
0.083500 0.091992
0.083750 0.091328
0.084000 0.092328
0.084250 0.094752
0.084500 0.096429
0.084750 0.095642
0.085000 0.093401
0.085250 0.092275
0.085500 0.093697
0.085750 0.096812
0.086000 0.099128
0.086250 0.098893
0.086500 0.097108
0.086750 0.096373
0.087000 0.098237
0.087250 0.101876
0.087500 0.104611
0.087750 0.104408
0.088000 0.102238
0.088250 0.100965
0.088500 0.102380
0.088750 0.105677
0.089000 0.108012
0.089250 0.107287
0.089500 0.104669
0.089750 0.102982
0.090000 0.103491
0.090250 0.105024
0.090500 0.105540
0.090750 0.104263
0.091000 0.102302
0.091250 0.101556
0.091500 0.102737
0.091750 0.104444
0.092000 0.104542
0.092250 0.102493
0.092500 0.099942
0.092750 0.099146
0.093000 0.100980
0.093250 0.104169
0.093500 0.106312
0.093750 0.106151
0.094000 0.104840
0.094250 0.104656
0.094500 0.106575
0.094750 0.109253
0.095000 0.110401
0.095250 0.109175
0.095500 0.106997
0.095750 0.106093
0.096000 0.107246
0.096250 0.109029
0.096500 0.109323
0.096750 0.107589
0.097000 0.105509
0.097250 0.105297
0.097500 0.107487
0.097750 0.110416
0.098000 0.111801
0.098250 0.111151
0.098500 0.110356
0.098750 0.111611
0.099000 0.114997
0.099250 0.118102
0.099500 0.118314
0.099750 0.115862
0.100000 0.113552
0.100250 0.113490
0.100500 0.115017
0.100750 0.115507
0.101000 0.113201
0.101250 0.109194
0.101500 0.106308
0.101750 0.106506
0.102000 0.109423
0.102250 0.112476
0.102500 0.112987
0.102750 0.111224
0.103000 0.110034
0.103250 0.111510
0.103500 0.115002
0.103750 0.117586
0.104000 0.116934
0.104250 0.114128
0.104500 0.112376
0.104750 0.113652
0.105000 0.117156
0.105250 0.119994
0.105500 0.119921
0.105750 0.117926
0.106000 0.117131
0.106250 0.119563
0.106500 0.124397
0.106750 0.128428
0.107000 0.129060
0.107250 0.127413
0.107500 0.126953
0.107750 0.129633
0.108000 0.134073
0.108250 0.136770
0.108500 0.135863
0.108750 0.133395
0.109000 0.132647
0.109250 0.134395
0.109500 0.136278
0.109750 0.135489
0.110000 0.131835
0.110250 0.127663
0.110500 0.125393
0.110750 0.125177
0.111000 0.124921
0.111250 0.122736
0.111500 0.118919
0.111750 0.115587
0.112000 0.114871
0.112250 0.117008
0.112500 0.119823
0.112750 0.120395
0.113000 0.117925
0.113250 0.114528
0.113500 0.112793
0.113750 0.113210
0.114000 0.114020
0.114250 0.113240
0.114500 0.110717
0.114750 0.108240
0.115000 0.107747
0.115250 0.109372
0.115500 0.111251
0.115750 0.111374
0.116000 0.109724
0.116250 0.108408
0.116500 0.109612
0.116750 0.113605
0.117000 0.118379
0.117250 0.121148
0.117500 0.120941
0.117750 0.119616
0.118000 0.119709
0.118250 0.121537
0.118500 0.122855
0.118750 0.121423
0.119000 0.117702
0.119250 0.114415
0.119500 0.113790
0.119750 0.115752
0.120000 0.118264
0.120250 0.119187
0.120500 0.118173
0.120750 0.117093
0.121000 0.118187
0.121250 0.121593
0.121500 0.124802
0.121750 0.125100
0.122000 0.123001
0.122250 0.121731
0.122500 0.123610
0.122750 0.127995
0.123000 0.131744
0.123250 0.132064
0.123500 0.129617
0.123750 0.127788
0.124000 0.129073
0.124250 0.132928
0.124500 0.136361
0.124750 0.136954
0.125000 0.135703
0.125250 0.135896
0.125500 0.139447
0.125750 0.144776
0.126000 0.147757
0.126250 0.145721
0.126500 0.140604
0.126750 0.136572
0.127000 0.135570
0.127250 0.135862
0.127500 0.134079
0.127750 0.129163
0.128000 0.123680
0.128250 0.120936
0.128500 0.122207
0.128750 0.126062
0.129000 0.129214
0.129250 0.129278
0.129500 0.127307
0.129750 0.126388
0.130000 0.128132
0.130250 0.131151
0.130500 0.132544
0.130750 0.131088
0.131000 0.128675
0.131250 0.128101
0.131500 0.130032
0.131750 0.132304
0.132000 0.132069
0.132250 0.128785
0.132500 0.124851
0.132750 0.123309
0.133000 0.125339
0.133250 0.129548
0.133500 0.133082
0.133750 0.134001
0.134000 0.133181
0.134250 0.133442
0.134500 0.136383
0.134750 0.140455
0.135000 0.142457
0.135250 0.141673
0.135500 0.141203
0.135750 0.144410
0.136000 0.151676
0.136250 0.159621
0.136500 0.163250
0.136750 0.161162
0.137000 0.157343
0.137250 0.156392
0.137500 0.159314
0.137750 0.163434
0.138000 0.165512
0.138250 0.165518
0.138500 0.166514
0.138750 0.170629
0.139000 0.176064
0.139250 0.178326
0.139500 0.174809
0.139750 0.167687
0.140000 0.161468
0.140250 0.158409
0.140500 0.156960
0.140750 0.154109
0.141000 0.148811
0.141250 0.143117
0.141500 0.140187
0.141750 0.141450
0.142000 0.145330
0.142250 0.148141
0.142500 0.147432
0.142750 0.144773
0.143000 0.143858
0.143250 0.146608
0.143500 0.151439
0.143750 0.154475
0.144000 0.153508
0.144250 0.150781
0.144500 0.150522
0.144750 0.155000
0.145000 0.162996
0.145250 0.170715
0.145500 0.175659
0.145750 0.180100
0.146000 0.188371
0.146250 0.201501
0.146500 0.214616
0.146750 0.219279
0.147000 0.211723
0.147250 0.197375
0.147500 0.184431
0.147750 0.176725
0.148000 0.172607
0.148250 0.167864
0.148500 0.160636
0.148750 0.153395
0.149000 0.149526
0.149250 0.149734
0.149500 0.151384
0.149750 0.150685
0.150000 0.146542
0.150250 0.141559
0.150500 0.138770
0.150750 0.138664
0.151000 0.139386
0.151250 0.139070
0.151500 0.137523
0.151750 0.136279
0.152000 0.137225
0.152250 0.140405
0.152500 0.143628
0.152750 0.144613
0.153000 0.143138
0.153250 0.141339
0.153500 0.141947
0.153750 0.145551
0.154000 0.149602
0.154250 0.150708
0.154500 0.148669
0.154750 0.146966
0.155000 0.149031
0.155250 0.155366
0.155500 0.163274
0.155750 0.168720
0.156000 0.169722
0.156250 0.168452
0.156500 0.168774
0.156750 0.171653
0.157000 0.173968
0.157250 0.172078
0.157500 0.166446
0.157750 0.161167
0.158000 0.159163
0.158250 0.159311
0.158500 0.157872
0.158750 0.152954
0.159000 0.146933
0.159250 0.143666
0.159500 0.144838
0.159750 0.148792
0.160000 0.151640
0.160250 0.150838
0.160500 0.148004
0.160750 0.146705
0.161000 0.148270
0.161250 0.150479
0.161500 0.149906
0.161750 0.145733
0.162000 0.140696
0.162250 0.138297
0.162500 0.139737
0.162750 0.142921
0.163000 0.143984
0.163250 0.141164
0.163500 0.136858
0.163750 0.134760
0.164000 0.136283
0.164250 0.139607
0.164500 0.141255
0.164750 0.139601
0.165000 0.136716
0.165250 0.135892
0.165500 0.138242
0.165750 0.141725
0.166000 0.143054
0.166250 0.141217
0.166500 0.138685
0.166750 0.138812
0.167000 0.142784
0.167250 0.148547
0.167500 0.152222
0.167750 0.151902
0.168000 0.149853
0.168250 0.149810
0.168500 0.153069
0.168750 0.157454
0.169000 0.159586
0.169250 0.158453
0.169500 0.156495
0.169750 0.157067
0.170000 0.161116
0.170250 0.166375
0.170500 0.169801
0.170750 0.170935
0.171000 0.172536
0.171250 0.177537
0.171500 0.185124
0.171750 0.189870
0.172000 0.186623
0.172250 0.176989
0.172500 0.167346
0.172750 0.162010
0.173000 0.160533
0.173250 0.159065
0.173500 0.154348
0.173750 0.147305
0.174000 0.141630
0.174250 0.139877
0.174500 0.141733
0.174750 0.144698
0.175000 0.146203
0.175250 0.145746
0.175500 0.145405
0.175750 0.147810
0.176000 0.153183
0.176250 0.158494
0.176500 0.160204
0.176750 0.158616
0.177000 0.157691
0.177250 0.160417
0.177500 0.165674
0.177750 0.168816
0.178000 0.166406
0.178250 0.160652
0.178500 0.156689
0.178750 0.157396
0.179000 0.161685
0.179250 0.165631
0.179500 0.165993
0.179750 0.163645
0.180000 0.162420
0.180250 0.164791
0.180500 0.169187
0.180750 0.171105
0.181000 0.167895
0.181250 0.162111
0.181500 0.158501
0.181750 0.159404
0.182000 0.163172
0.182250 0.165565
0.182500 0.164072
0.182750 0.161034
0.183000 0.160786
0.183250 0.165284
0.183500 0.172504
0.183750 0.177718
0.184000 0.178175
0.184250 0.176683
0.184500 0.178350
0.184750 0.185501
0.185000 0.195758
0.185250 0.203399
0.185500 0.204900
0.185750 0.203396
0.186000 0.204664
0.186250 0.210493
0.186500 0.216684
0.186750 0.216812
0.187000 0.209332
0.187250 0.199144
0.187500 0.191640
0.187750 0.187814
0.188000 0.184744
0.188250 0.179572
0.188500 0.172559
0.188750 0.166668
0.189000 0.164709
0.189250 0.166684
0.189500 0.169598
0.189750 0.170195
0.190000 0.168395
0.190250 0.167360
0.190500 0.170135
0.190750 0.176488
0.191000 0.182506
0.191250 0.183825
0.191500 0.180265
0.191750 0.176025
0.192000 0.175052
0.192250 0.177398
0.192500 0.179611
0.192750 0.178473
0.193000 0.174639
0.193250 0.172025
0.193500 0.173754
0.193750 0.179130
0.194000 0.183835
0.194250 0.184002
0.194500 0.180817
0.194750 0.178961
0.195000 0.181145
0.195250 0.185365
0.195500 0.186663
0.195750 0.182336
0.196000 0.175031
0.196250 0.169569
0.196500 0.168169
0.196750 0.169012
0.197000 0.168456
0.197250 0.165007
0.197500 0.160894
0.197750 0.159663
0.198000 0.162760
0.198250 0.168018
0.198500 0.171072
0.198750 0.169511
0.199000 0.165417
0.199250 0.162760
0.199500 0.163226
0.199750 0.165006
0.200000 0.165222
0.200250 0.163297
0.200500 0.161675
0.200750 0.162369
0.201000 0.165432
0.201250 0.169212
0.201500 0.172066
0.201750 0.173744
0.202000 0.175118
0.202250 0.176929
0.202500 0.179010
0.202750 0.180599
0.203000 0.181174
0.203250 0.180866
0.203500 0.180199
0.203750 0.179572
0.204000 0.179011
0.204250 0.178326
0.204500 0.177408
0.204750 0.176344
0.205000 0.175328
0.205250 0.174494
0.205500 0.173863
0.205750 0.173402
0.206000 0.173098
0.206250 0.172989
0.206500 0.173113
0.206750 0.173463
0.207000 0.173979
0.207250 0.174587
0.207500 0.175235
0.207750 0.175910
0.208000 0.176621
0.208250 0.177375
0.208500 0.178168
0.208750 0.178991
0.209000 0.179839
0.209250 0.180720
0.209500 0.181645
0.209750 0.182620
0.210000 0.183643
0.210250 0.184706
0.210500 0.185802
0.210750 0.186926
0.211000 0.188077
0.211250 0.189249
0.211500 0.190438
0.211750 0.191636
0.212000 0.192839
0.212250 0.194039
0.212500 0.195225
0.212750 0.196382
0.213000 0.197489
0.213250 0.198524
0.213500 0.199461
0.213750 0.200281
0.214000 0.200968
0.214250 0.201514
0.214500 0.201919
0.214750 0.202190
0.215000 0.202340
0.215250 0.202385
0.215500 0.202344
0.215750 0.202236
0.216000 0.202077
0.216250 0.201886
0.216500 0.201679
0.216750 0.201471
0.217000 0.201279
0.217250 0.201114
0.217500 0.200990
0.217750 0.200915
0.218000 0.200897
0.218250 0.200939
0.218500 0.201044
0.218750 0.201210
0.219000 0.201435
0.219250 0.201715
0.219500 0.202043
0.219750 0.202413
0.220000 0.202816
0.220250 0.203244
0.220500 0.203689
0.220750 0.204144
0.221000 0.204600
0.221250 0.205051
0.221500 0.205490
0.221750 0.205913
0.222000 0.206314
0.222250 0.206690
0.222500 0.207038
0.222750 0.207355
0.223000 0.207641
0.223250 0.207895
0.223500 0.208117
0.223750 0.208308
0.224000 0.208469
0.224250 0.208602
0.224500 0.208709
0.224750 0.208792
0.225000 0.208855
0.225250 0.208900
0.225500 0.208930
0.225750 0.208948
0.226000 0.208957
0.226250 0.208960
0.226500 0.208960
0.226750 0.208959
0.227000 0.208958
0.227250 0.208961
0.227500 0.208968
0.227750 0.208981
0.228000 0.209001
0.228250 0.209029
0.228500 0.209067
0.228750 0.209114
0.229000 0.209173
0.229250 0.209243
0.229500 0.209325
0.229750 0.209421
0.230000 0.209530
0.230250 0.209653
0.230500 0.209790
0.230750 0.209942
0.231000 0.210108
0.231250 0.210288
0.231500 0.210483
0.231750 0.210690
0.232000 0.210911
0.232250 0.211144
0.232500 0.211388
0.232750 0.211643
0.233000 0.211908
0.233250 0.212182
0.233500 0.212463
0.233750 0.212751
0.234000 0.213044
0.234250 0.213341
0.234500 0.213641
0.234750 0.213942
0.235000 0.214243
0.235250 0.214542
0.235500 0.214837
0.235750 0.215128
0.236000 0.215413
0.236250 0.215691
0.236500 0.215960
0.236750 0.216220
0.237000 0.216470
0.237250 0.216710
0.237500 0.216940
0.237750 0.217158
0.238000 0.217366
0.238250 0.217563
0.238500 0.217750
0.238750 0.217928
0.239000 0.218097
0.239250 0.218257
0.239500 0.218410
0.239750 0.218556
0.240000 0.218695
0.240250 0.218829
0.240500 0.218958
0.240750 0.219082
0.241000 0.219203
0.241250 0.219321
0.241500 0.219437
0.241750 0.219550
0.242000 0.219663
0.242250 0.219775
0.242500 0.219888
0.242750 0.220001
0.243000 0.220116
0.243250 0.220234
0.243500 0.220355
0.243750 0.220480
0.244000 0.220610
0.244250 0.220746
0.244500 0.220889
0.244750 0.221039
0.245000 0.221197
0.245250 0.221364
0.245500 0.221541
0.245750 0.221728
0.246000 0.221925
0.246250 0.222134
0.246500 0.222355
0.246750 0.222587
0.247000 0.222831
0.247250 0.223088
0.247500 0.223356
0.247750 0.223636
0.248000 0.223929
0.248250 0.224232
0.248500 0.224547
0.248750 0.224872
0.249000 0.225206
0.249250 0.225550
0.249500 0.225901
0.249750 0.226260
0.250000 0.226625
0.250250 0.226995
0.250500 0.227368
0.250750 0.227743
0.251000 0.228120
0.251250 0.228496
0.251500 0.228869
0.251750 0.229239
0.252000 0.229604
0.252250 0.229961
0.252500 0.230310
0.252750 0.230648
0.253000 0.230975
0.253250 0.231287
0.253500 0.231584
0.253750 0.231864
0.254000 0.232126
0.254250 0.232369
0.254500 0.232590
0.254750 0.232790
0.255000 0.232968
0.255250 0.233122
0.255500 0.233252
0.255750 0.233358
0.256000 0.233440
0.256250 0.233497
0.256500 0.233531
0.256750 0.233541
0.257000 0.233529
0.257250 0.233494
0.257500 0.233439
0.257750 0.233364
0.258000 0.233270
0.258250 0.233159
0.258500 0.233033
0.258750 0.232891
0.259000 0.232737
0.259250 0.232572
0.259500 0.232397
0.259750 0.232214
0.260000 0.232024
0.260250 0.231829
0.260500 0.231630
0.260750 0.231429
0.261000 0.231227
0.261250 0.231025
0.261500 0.230825
0.261750 0.230627
0.262000 0.230432
0.262250 0.230242
0.262500 0.230057
0.262750 0.229879
0.263000 0.229707
0.263250 0.229543
0.263500 0.229387
0.263750 0.229240
0.264000 0.229101
0.264250 0.228972
0.264500 0.228853
0.264750 0.228744
0.265000 0.228645
0.265250 0.228557
0.265500 0.228479
0.265750 0.228412
0.266000 0.228356
0.266250 0.228310
0.266500 0.228274
0.266750 0.228250
0.267000 0.228235
0.267250 0.228231
0.267500 0.228237
0.267750 0.228253
0.268000 0.228278
0.268250 0.228313
0.268500 0.228357
0.268750 0.228410
0.269000 0.228471
0.269250 0.228541
0.269500 0.228619
0.269750 0.228705
0.270000 0.228798
0.270250 0.228898
0.270500 0.229006
0.270750 0.229120
0.271000 0.229240
0.271250 0.229366
0.271500 0.229498
0.271750 0.229635
0.272000 0.229778
0.272250 0.229925
0.272500 0.230078
0.272750 0.230234
0.273000 0.230395
0.273250 0.230559
0.273500 0.230728
0.273750 0.230899
0.274000 0.231074
0.274250 0.231252
0.274500 0.231433
0.274750 0.231617
0.275000 0.231803
0.275250 0.231991
0.275500 0.232181
0.275750 0.232374
0.276000 0.232568
0.276250 0.232764
0.276500 0.232962
0.276750 0.233161
0.277000 0.233361
0.277250 0.233562
0.277500 0.233765
0.277750 0.233968
0.278000 0.234172
0.278250 0.234377
0.278500 0.234583
0.278750 0.234789
0.279000 0.234995
0.279250 0.235202
0.279500 0.235409
0.279750 0.235616
0.280000 0.235823
0.280250 0.236030
0.280500 0.236237
0.280750 0.236443
0.281000 0.236650
0.281250 0.236856
0.281500 0.237061
0.281750 0.237267
0.282000 0.237471
0.282250 0.237675
0.282500 0.237879
0.282750 0.238082
0.283000 0.238284
0.283250 0.238485
0.283500 0.238686
0.283750 0.238886
0.284000 0.239086
0.284250 0.239285
0.284500 0.239483
0.284750 0.239680
0.285000 0.239877
0.285250 0.240073
0.285500 0.240269
0.285750 0.240464
0.286000 0.240658
0.286250 0.240853
0.286500 0.241046
0.286750 0.241240
0.287000 0.241433
0.287250 0.241626
0.287500 0.241818
0.287750 0.242011
0.288000 0.242203
0.288250 0.242395
0.288500 0.242587
0.288750 0.242779
0.289000 0.242972
0.289250 0.243164
0.289500 0.243356
0.289750 0.243548
0.290000 0.243741
0.290250 0.243934
0.290500 0.244126
0.290750 0.244319
0.291000 0.244512
0.291250 0.244705
0.291500 0.244899
0.291750 0.245092
0.292000 0.245285
0.292250 0.245479
0.292500 0.245673
0.292750 0.245866
0.293000 0.246060
0.293250 0.246253
0.293500 0.246447
0.293750 0.246640
0.294000 0.246833
0.294250 0.247026
0.294500 0.247219
0.294750 0.247411
0.295000 0.247603
0.295250 0.247795
0.295500 0.247987
0.295750 0.248177
0.296000 0.248368
0.296250 0.248558
0.296500 0.248747
0.296750 0.248936
0.297000 0.249125
0.297250 0.249312
0.297500 0.249499
0.297750 0.249685
0.298000 0.249871
0.298250 0.250056
0.298500 0.250239
0.298750 0.250422
0.299000 0.250605
0.299250 0.250786
0.299500 0.250966
0.299750 0.251146
0.300000 0.251324
0.300250 0.251501
0.300500 0.251678
0.300750 0.251853
0.301000 0.252027
0.301250 0.252200
0.301500 0.252371
0.301750 0.252541
0.302000 0.252710
0.302250 0.252878
0.302500 0.253044
0.302750 0.253208
0.303000 0.253371
0.303250 0.253532
0.303500 0.253691
0.303750 0.253849
0.304000 0.254005
0.304250 0.254158
0.304500 0.254310
0.304750 0.254459
0.305000 0.254607
0.305250 0.254751
0.305500 0.254894
0.305750 0.255034
0.306000 0.255171
0.306250 0.255305
0.306500 0.255437
0.306750 0.255566
0.307000 0.255691
0.307250 0.255814
0.307500 0.255933
0.307750 0.256049
0.308000 0.256162
0.308250 0.256271
0.308500 0.256377
0.308750 0.256479
0.309000 0.256577
0.309250 0.256672
0.309500 0.256763
0.309750 0.256850
0.310000 0.256933
0.310250 0.257012
0.310500 0.257087
0.310750 0.257159
0.311000 0.257226
0.311250 0.257289
0.311500 0.257349
0.311750 0.257405
0.312000 0.257456
0.312250 0.257504
0.312500 0.257549
0.312750 0.257589
0.313000 0.257626
0.313250 0.257659
0.313500 0.257689
0.313750 0.257715
0.314000 0.257738
0.314250 0.257758
0.314500 0.257774
0.314750 0.257788
0.315000 0.257799
0.315250 0.257806
0.315500 0.257812
0.315750 0.257814
0.316000 0.257815
0.316250 0.257813
0.316500 0.257809
0.316750 0.257803
0.317000 0.257795
0.317250 0.257786
0.317500 0.257775
0.317750 0.257763
0.318000 0.257749
0.318250 0.257734
0.318500 0.257719
0.318750 0.257702
0.319000 0.257685
0.319250 0.257668
0.319500 0.257650
0.319750 0.257631
0.320000 0.257613
0.320250 0.257595
0.320500 0.257577
0.320750 0.257559
0.321000 0.257541
0.321250 0.257524
0.321500 0.257508
0.321750 0.257493
0.322000 0.257478
0.322250 0.257464
0.322500 0.257452
0.322750 0.257441
0.323000 0.257431
0.323250 0.257422
0.323500 0.257415
0.323750 0.257409
0.324000 0.257405
0.324250 0.257403
0.324500 0.257402
0.324750 0.257404
0.325000 0.257407
0.325250 0.257412
0.325500 0.257420
0.325750 0.257429
0.326000 0.257441
0.326250 0.257455
0.326500 0.257471
0.326750 0.257489
0.327000 0.257509
0.327250 0.257532
0.327500 0.257558
0.327750 0.257585
0.328000 0.257615
0.328250 0.257648
0.328500 0.257683
0.328750 0.257720
0.329000 0.257760
0.329250 0.257802
0.329500 0.257847
0.329750 0.257894
0.330000 0.257943
0.330250 0.257995
0.330500 0.258050
0.330750 0.258106
0.331000 0.258165
0.331250 0.258227
0.331500 0.258291
0.331750 0.258357
0.332000 0.258426
0.332250 0.258496
0.332500 0.258569
0.332750 0.258645
0.333000 0.258722
0.333250 0.258802
0.333500 0.258883
0.333750 0.258967
0.334000 0.259053
0.334250 0.259141
0.334500 0.259231
0.334750 0.259322
0.335000 0.259416
0.335250 0.259512
0.335500 0.259609
0.335750 0.259708
0.336000 0.259809
0.336250 0.259912
0.336500 0.260016
0.336750 0.260122
0.337000 0.260230
0.337250 0.260339
0.337500 0.260449
0.337750 0.260561
0.338000 0.260675
0.338250 0.260790
0.338500 0.260906
0.338750 0.261024
0.339000 0.261142
0.339250 0.261262
0.339500 0.261384
0.339750 0.261506
0.340000 0.261630
0.340250 0.261754
0.340500 0.261880
0.340750 0.262007
0.341000 0.262134
0.341250 0.262263
0.341500 0.262392
0.341750 0.262523
0.342000 0.262654
0.342250 0.262786
0.342500 0.262918
0.342750 0.263052
0.343000 0.263186
0.343250 0.263321
0.343500 0.263456
0.343750 0.263592
0.344000 0.263729
0.344250 0.263866
0.344500 0.264003
0.344750 0.264142
0.345000 0.264280
0.345250 0.264419
0.345500 0.264559
0.345750 0.264699
0.346000 0.264839
0.346250 0.264979
0.346500 0.265120
0.346750 0.265261
0.347000 0.265403
0.347250 0.265544
0.347500 0.265686
0.347750 0.265829
0.348000 0.265971
0.348250 0.266113
0.348500 0.266256
0.348750 0.266399
0.349000 0.266542
0.349250 0.266685
0.349500 0.266828
0.349750 0.266972
0.350000 0.267115
0.350250 0.267259
0.350500 0.267402
0.350750 0.267546
0.351000 0.267689
0.351250 0.267833
0.351500 0.267977
0.351750 0.268121
0.352000 0.268264
0.352250 0.268408
0.352500 0.268552
0.352750 0.268696
0.353000 0.268840
0.353250 0.268984
0.353500 0.269128
0.353750 0.269272
0.354000 0.269416
0.354250 0.269560
0.354500 0.269704
0.354750 0.269848
0.355000 0.269992
0.355250 0.270136
0.355500 0.270280
0.355750 0.270424
0.356000 0.270569
0.356250 0.270713
0.356500 0.270858
0.356750 0.271002
0.357000 0.271147
0.357250 0.271291
0.357500 0.271436
0.357750 0.271581
0.358000 0.271726
0.358250 0.271872
0.358500 0.272017
0.358750 0.272163
0.359000 0.272309
0.359250 0.272455
0.359500 0.272601
0.359750 0.272748
0.360000 0.272895
0.360250 0.273042
0.360500 0.273189
0.360750 0.273337
0.361000 0.273485
0.361250 0.273634
0.361500 0.273782
0.361750 0.273932
0.362000 0.274082
0.362250 0.274232
0.362500 0.274382
0.362750 0.274534
0.363000 0.274685
0.363250 0.274837
0.363500 0.274990
0.363750 0.275143
0.364000 0.275297
0.364250 0.275452
0.364500 0.275607
0.364750 0.275763
0.365000 0.275919
0.365250 0.276076
0.365500 0.276234
0.365750 0.276393
0.366000 0.276552
0.366250 0.276712
0.366500 0.276873
0.366750 0.277035
0.367000 0.277197
0.367250 0.277360
0.367500 0.277525
0.367750 0.277690
0.368000 0.277855
0.368250 0.278022
0.368500 0.278190
0.368750 0.278358
0.369000 0.278528
0.369250 0.278698
0.369500 0.278870
0.369750 0.279042
0.370000 0.279215
0.370250 0.279389
0.370500 0.279564
0.370750 0.279741
0.371000 0.279918
0.371250 0.280096
0.371500 0.280275
0.371750 0.280455
0.372000 0.280636
0.372250 0.280819
0.372500 0.281002
0.372750 0.281186
0.373000 0.281371
0.373250 0.281557
0.373500 0.281745
0.373750 0.281933
0.374000 0.282122
0.374250 0.282313
0.374500 0.282504
0.374750 0.282697
0.375000 0.282890
0.375250 0.283085
0.375500 0.283281
0.375750 0.283477
0.376000 0.283675
0.376250 0.283874
0.376500 0.284073
0.376750 0.284274
0.377000 0.284476
0.377250 0.284679
0.377500 0.284883
0.377750 0.285088
0.378000 0.285294
0.378250 0.285501
0.378500 0.285709
0.378750 0.285919
0.379000 0.286129
0.379250 0.286340
0.379500 0.286553
0.379750 0.286766
0.380000 0.286981
0.380250 0.287196
0.380500 0.287413
0.380750 0.287631
0.381000 0.287850
0.381250 0.288070
0.381500 0.288291
0.381750 0.288513
0.382000 0.288736
0.382250 0.288960
0.382500 0.289185
0.382750 0.289412
0.383000 0.289640
0.383250 0.289868
0.383500 0.290098
0.383750 0.290329
0.384000 0.290561
0.384250 0.290795
0.384500 0.291029
0.384750 0.291265
0.385000 0.291501
0.385250 0.291739
0.385500 0.291978
0.385750 0.292219
0.386000 0.292460
0.386250 0.292703
0.386500 0.292946
0.386750 0.293191
0.387000 0.293438
0.387250 0.293685
0.387500 0.293934
0.387750 0.294183
0.388000 0.294434
0.388250 0.294686
0.388500 0.294940
0.388750 0.295195
0.389000 0.295450
0.389250 0.295707
0.389500 0.295966
0.389750 0.296225
0.390000 0.296486
0.390250 0.296748
0.390500 0.297011
0.390750 0.297275
0.391000 0.297540
0.391250 0.297807
0.391500 0.298075
0.391750 0.298344
0.392000 0.298614
0.392250 0.298885
0.392500 0.299157
0.392750 0.299431
0.393000 0.299706
0.393250 0.299981
0.393500 0.300258
0.393750 0.300536
0.394000 0.300815
0.394250 0.301095
0.394500 0.301376
0.394750 0.301658
0.395000 0.301941
0.395250 0.302225
0.395500 0.302510
0.395750 0.302796
0.396000 0.303083
0.396250 0.303370
0.396500 0.303659
0.396750 0.303948
0.397000 0.304238
0.397250 0.304529
0.397500 0.304821
0.397750 0.305113
0.398000 0.305406
0.398250 0.305700
0.398500 0.305994
0.398750 0.306289
0.399000 0.306585
0.399250 0.306881
0.399500 0.307177
0.399750 0.307474
0.400000 0.307772
0.400250 0.308069
0.400500 0.308367
0.400750 0.308666
0.401000 0.308965
0.401250 0.309263
0.401500 0.309563
0.401750 0.309862
0.402000 0.310161
0.402250 0.310461
0.402500 0.310760
0.402750 0.311060
0.403000 0.311359
0.403250 0.311659
0.403500 0.311958
0.403750 0.312257
0.404000 0.312556
0.404250 0.312854
0.404500 0.313152
0.404750 0.313450
0.405000 0.313748
0.405250 0.314045
0.405500 0.314342
0.405750 0.314638
0.406000 0.314933
0.406250 0.315228
0.406500 0.315523
0.406750 0.315816
0.407000 0.316109
0.407250 0.316401
0.407500 0.316693
0.407750 0.316983
0.408000 0.317273
0.408250 0.317562
0.408500 0.317849
0.408750 0.318136
0.409000 0.318422
0.409250 0.318706
0.409500 0.318990
0.409750 0.319272
0.410000 0.319553
0.410250 0.319833
0.410500 0.320111
0.410750 0.320388
0.411000 0.320664
0.411250 0.320939
0.411500 0.321212
0.411750 0.321483
0.412000 0.321754
0.412250 0.322022
0.412500 0.322289
0.412750 0.322555
0.413000 0.322819
0.413250 0.323081
0.413500 0.323342
0.413750 0.323601
0.414000 0.323858
0.414250 0.324113
0.414500 0.324367
0.414750 0.324619
0.415000 0.324869
0.415250 0.325117
0.415500 0.325364
0.415750 0.325608
0.416000 0.325851
0.416250 0.326092
0.416500 0.326330
0.416750 0.326567
0.417000 0.326802
0.417250 0.327035
0.417500 0.327266
0.417750 0.327495
0.418000 0.327721
0.418250 0.327946
0.418500 0.328169
0.418750 0.328389
0.419000 0.328608
0.419250 0.328824
0.419500 0.329039
0.419750 0.329251
0.420000 0.329461
0.420250 0.329669
0.420500 0.329875
0.420750 0.330078
0.421000 0.330280
0.421250 0.330479
0.421500 0.330676
0.421750 0.330871
0.422000 0.331064
0.422250 0.331255
0.422500 0.331443
0.422750 0.331629
0.423000 0.331814
0.423250 0.331996
0.423500 0.332175
0.423750 0.332353
0.424000 0.332528
0.424250 0.332702
0.424500 0.332873
0.424750 0.333042
0.425000 0.333209
0.425250 0.333373
0.425500 0.333536
0.425750 0.333696
0.426000 0.333854
0.426250 0.334010
0.426500 0.334164
0.426750 0.334316
0.427000 0.334466
0.427250 0.334614
0.427500 0.334759
0.427750 0.334903
0.428000 0.335044
0.428250 0.335183
0.428500 0.335321
0.428750 0.335456
0.429000 0.335589
0.429250 0.335720
0.429500 0.335849
0.429750 0.335977
0.430000 0.336102
0.430250 0.336225
0.430500 0.336346
0.430750 0.336466
0.431000 0.336583
0.431250 0.336699
0.431500 0.336813
0.431750 0.336924
0.432000 0.337034
0.432250 0.337143
0.432500 0.337249
0.432750 0.337353
0.433000 0.337456
0.433250 0.337557
0.433500 0.337656
0.433750 0.337754
0.434000 0.337850
0.434250 0.337944
0.434500 0.338036
0.434750 0.338127
0.435000 0.338216
0.435250 0.338304
0.435500 0.338390
0.435750 0.338475
0.436000 0.338558
0.436250 0.338639
0.436500 0.338719
0.436750 0.338797
0.437000 0.338874
0.437250 0.338950
0.437500 0.339024
0.437750 0.339097
0.438000 0.339169
0.438250 0.339239
0.438500 0.339308
0.438750 0.339375
0.439000 0.339442
0.439250 0.339507
0.439500 0.339571
0.439750 0.339633
0.440000 0.339695
0.440250 0.339755
0.440500 0.339815
0.440750 0.339873
0.441000 0.339930
0.441250 0.339986
0.441500 0.340042
0.441750 0.340096
0.442000 0.340149
0.442250 0.340202
0.442500 0.340253
0.442750 0.340304
0.443000 0.340354
0.443250 0.340403
0.443500 0.340451
0.443750 0.340498
0.444000 0.340545
0.444250 0.340591
0.444500 0.340636
0.444750 0.340681
0.445000 0.340725
0.445250 0.340768
0.445500 0.340811
0.445750 0.340853
0.446000 0.340895
0.446250 0.340936
0.446500 0.340977
0.446750 0.341017
0.447000 0.341057
0.447250 0.341096
0.447500 0.341135
0.447750 0.341174
0.448000 0.341213
0.448250 0.341251
0.448500 0.341288
0.448750 0.341326
0.449000 0.341363
0.449250 0.341400
0.449500 0.341437
0.449750 0.341474
0.450000 0.341510
0.450250 0.341547
0.450500 0.341583
0.450750 0.341619
0.451000 0.341655
0.451250 0.341691
0.451500 0.341728
0.451750 0.341764
0.452000 0.341800
0.452250 0.341836
0.452500 0.341872
0.452750 0.341908
0.453000 0.341945
0.453250 0.341981
0.453500 0.342018
0.453750 0.342055
0.454000 0.342092
0.454250 0.342129
0.454500 0.342166
0.454750 0.342204
0.455000 0.342242
0.455250 0.342280
0.455500 0.342318
0.455750 0.342357
0.456000 0.342396
0.456250 0.342435
0.456500 0.342475
0.456750 0.342515
0.457000 0.342555
0.457250 0.342596
0.457500 0.342637
0.457750 0.342679
0.458000 0.342721
0.458250 0.342763
0.458500 0.342806
0.458750 0.342849
0.459000 0.342893
0.459250 0.342937
0.459500 0.342982
0.459750 0.343027
0.460000 0.343073
0.460250 0.343119
0.460500 0.343166
0.460750 0.343213
0.461000 0.343261
0.461250 0.343310
0.461500 0.343359
0.461750 0.343409
0.462000 0.343459
0.462250 0.343510
0.462500 0.343561
0.462750 0.343613
0.463000 0.343666
0.463250 0.343719
0.463500 0.343773
0.463750 0.343828
0.464000 0.343883
0.464250 0.343939
0.464500 0.343995
0.464750 0.344052
0.465000 0.344110
0.465250 0.344169
0.465500 0.344228
0.465750 0.344288
0.466000 0.344348
0.466250 0.344409
0.466500 0.344471
0.466750 0.344534
0.467000 0.344597
0.467250 0.344661
0.467500 0.344726
0.467750 0.344791
0.468000 0.344857
0.468250 0.344924
0.468500 0.344992
0.468750 0.345060
0.469000 0.345129
0.469250 0.345198
0.469500 0.345269
0.469750 0.345340
0.470000 0.345411
0.470250 0.345484
0.470500 0.345557
0.470750 0.345631
0.471000 0.345705
0.471250 0.345781
0.471500 0.345856
0.471750 0.345933
0.472000 0.346010
0.472250 0.346088
0.472500 0.346167
0.472750 0.346247
0.473000 0.346327
0.473250 0.346407
0.473500 0.346489
0.473750 0.346571
0.474000 0.346654
0.474250 0.346737
0.474500 0.346821
0.474750 0.346906
0.475000 0.346992
0.475250 0.347078
0.475500 0.347164
0.475750 0.347252
0.476000 0.347340
0.476250 0.347428
0.476500 0.347518
0.476750 0.347608
0.477000 0.347698
0.477250 0.347789
0.477500 0.347881
0.477750 0.347973
0.478000 0.348066
0.478250 0.348160
0.478500 0.348254
0.478750 0.348348
0.479000 0.348443
0.479250 0.348539
0.479500 0.348635
0.479750 0.348732
0.480000 0.348830
0.480250 0.348928
0.480500 0.349026
0.480750 0.349125
0.481000 0.349224
0.481250 0.349324
0.481500 0.349425
0.481750 0.349526
0.482000 0.349627
0.482250 0.349729
0.482500 0.349831
0.482750 0.349934
0.483000 0.350037
0.483250 0.350141
0.483500 0.350245
0.483750 0.350349
0.484000 0.350454
0.484250 0.350560
0.484500 0.350665
0.484750 0.350771
0.485000 0.350878
0.485250 0.350985
0.485500 0.351092
0.485750 0.351200
0.486000 0.351308
0.486250 0.351416
0.486500 0.351525
0.486750 0.351634
0.487000 0.351743
0.487250 0.351852
0.487500 0.351962
0.487750 0.352072
0.488000 0.352183
0.488250 0.352294
0.488500 0.352405
0.488750 0.352516
0.489000 0.352628
0.489250 0.352739
0.489500 0.352851
0.489750 0.352964
0.490000 0.353076
0.490250 0.353189
0.490500 0.353302
0.490750 0.353415
0.491000 0.353528
0.491250 0.353642
0.491500 0.353755
0.491750 0.353869
0.492000 0.353983
0.492250 0.354098
0.492500 0.354212
0.492750 0.354327
0.493000 0.354441
0.493250 0.354556
0.493500 0.354671
0.493750 0.354786
0.494000 0.354901
0.494250 0.355017
0.494500 0.355132
0.494750 0.355248
0.495000 0.355363
0.495250 0.355479
0.495500 0.355595
0.495750 0.355711
0.496000 0.355827
0.496250 0.355943
0.496500 0.356059
0.496750 0.356175
0.497000 0.356291
0.497250 0.356407
0.497500 0.356524
0.497750 0.356640
0.498000 0.356757
0.498250 0.356873
0.498500 0.356989
0.498750 0.357106
0.499000 0.357222
0.499250 0.357339
0.499500 0.357456
0.499750 0.357572
0.500000 0.357689
0.509900 0.362132
0.519800 0.366585
0.529700 0.371050
0.539600 0.375543
0.549500 0.379954
0.559400 0.384088
0.569300 0.387845
0.579200 0.391249
0.589100 0.394360
0.599000 0.397256
0.608900 0.400042
0.618800 0.402797
0.628700 0.405485
0.638600 0.407816
0.648500 0.409170
0.658400 0.408936
0.668300 0.407123
0.678200 0.404481
0.688100 0.401939
0.698000 0.400207
0.707900 0.399755
0.717800 0.400795
0.727700 0.403112
0.737600 0.405986
0.747500 0.408419
0.757400 0.409600
0.767300 0.409271
0.777200 0.407646
0.787100 0.405027
0.797000 0.401610
0.806900 0.397635
0.816800 0.393468
0.826700 0.389502
0.836600 0.386001
0.846500 0.383018
0.856400 0.380484
0.866300 0.378392
0.876200 0.376862
0.886100 0.376049
0.896000 0.376056
0.905900 0.376877
0.915800 0.378338
0.925700 0.380100
0.935600 0.381780
0.945500 0.383144
0.955400 0.384237
0.965300 0.385293
0.975200 0.386488
0.985100 0.387824
0.995000 0.389269
1.004900 0.391013
1.014800 0.393519
1.024700 0.397299
1.034600 0.402597
1.044500 0.409212
1.054400 0.416593
1.064300 0.424157
1.074200 0.431623
1.084100 0.439101
1.094000 0.446920
1.103900 0.455389
1.113800 0.464639
1.123700 0.474566
1.133600 0.484898
1.143500 0.495269
1.153400 0.505085
1.163300 0.513344
1.173200 0.518814
1.183100 0.520784
1.193000 0.519693
1.202900 0.516880
1.212800 0.513854
1.222700 0.511835
1.232600 0.511568
1.242500 0.513168
1.252400 0.516144
1.262300 0.519739
1.272200 0.523369
1.282100 0.526842
1.292000 0.530249
1.301900 0.533735
1.311800 0.537395
1.321700 0.541321
1.331600 0.545697
1.341500 0.550774
1.351400 0.556775
1.361300 0.563885
1.371200 0.572300
1.381100 0.582114
1.391000 0.593073
1.400900 0.604545
1.410800 0.615827
1.420700 0.626514
1.430600 0.636638
1.440500 0.646310
1.450400 0.655290
1.460300 0.663122
1.470200 0.669544
1.480100 0.674712
1.490000 0.679262
1.499900 0.684012
1.509800 0.689343
1.519700 0.694931
1.529600 0.699983
1.539500 0.703600
1.549400 0.704997
1.559300 0.703661
1.569200 0.699700
1.579100 0.694260
1.589000 0.689259
1.598900 0.686560
1.608800 0.687411
1.618700 0.692355
1.628600 0.701332
1.638500 0.713881
1.648400 0.729200
1.658300 0.745795
1.668200 0.761029
1.678100 0.771627
1.688000 0.775406
1.697900 0.772702
1.707800 0.765907
1.717700 0.757888
1.727600 0.751011
1.737500 0.746984
1.747400 0.746916
1.757300 0.751491
1.767200 0.761185
1.777100 0.776264
1.787000 0.796730
1.796900 0.822393
1.806800 0.852842
1.816700 0.887213
1.826600 0.924114
1.836500 0.962053
1.846400 0.999983
1.856300 1.037186
1.866200 1.072547
1.876100 1.104429
1.886000 1.131851
1.895900 1.155917
1.905800 1.179661
1.915700 1.206049
1.925600 1.236068
1.935500 1.268496
1.945400 1.301153
1.955300 1.332366
1.965200 1.361426
1.975100 1.387609
1.985000 1.408950
1.994900 1.422432
2.004800 1.425993
2.014700 1.420566
2.024600 1.409514
2.034500 1.396122
2.044400 1.382263
2.054300 1.369031
2.064200 1.357341
2.074100 1.347415
2.084000 1.338434
2.093900 1.329549
2.103800 1.321275
2.113700 1.315587
2.123600 1.314614
2.133500 1.319574
2.143400 1.330801
2.153300 1.347962
2.163200 1.369569
2.173100 1.392174
2.183000 1.410667
2.192900 1.420719
2.202800 1.421665
2.212700 1.416233
2.222600 1.407563
2.232500 1.397495
2.242400 1.387295
2.252300 1.378727
2.262200 1.373662
2.272100 1.372779
2.282000 1.375237
2.291900 1.379779
2.301800 1.385771
2.311700 1.393059
2.321600 1.401381
2.331500 1.410288
2.341400 1.419407
2.351300 1.428122
2.361200 1.435078
2.371100 1.438755
2.381000 1.438738
2.390900 1.436193
2.400800 1.433211
2.410700 1.431737
2.420600 1.432630
2.430500 1.435520
2.440400 1.439429
2.450300 1.443071
2.460200 1.444620
2.470100 1.442173
2.480000 1.434842
2.489900 1.422952
2.499800 1.407555
2.509700 1.390510
2.519600 1.374419
2.529500 1.361382
2.539400 1.351844
2.549300 1.344613
2.559200 1.337521
2.569100 1.328341
2.579000 1.315952
2.588900 1.301184
2.598800 1.286398
2.608700 1.274105
2.618600 1.265862
2.628500 1.261911
2.638400 1.261433
2.648300 1.263260
2.658200 1.266593
2.668100 1.271096
2.678000 1.276310
2.687900 1.281233
2.697800 1.284703
2.707700 1.286063
2.717600 1.285481
2.727500 1.283924
2.737400 1.282610
2.747300 1.282048
2.757200 1.281605
2.767100 1.279911
2.777000 1.275536
2.786900 1.267271
2.796800 1.254256
2.806700 1.236376
2.816600 1.214642
2.826500 1.191068
2.836400 1.168080
2.846300 1.147631
2.856200 1.130619
2.866100 1.117015
2.876000 1.106286
2.885900 1.097510
2.895800 1.089399
2.905700 1.080737
2.915600 1.071012
2.925500 1.060492
2.935400 1.049742
2.945300 1.039265
2.955200 1.029395
2.965100 1.020182
2.975000 1.011512
2.984900 1.003537
2.994800 0.996808
3.004700 0.991821
3.014600 0.988609
3.024500 0.986880
3.034400 0.986379
3.044300 0.987005
3.054200 0.988723
3.064100 0.991384
3.074000 0.994551
3.083900 0.997538
3.093800 0.999529
3.103700 0.999631
3.113600 0.997146
3.123500 0.992187
3.133400 0.985701
3.143300 0.978694
3.153200 0.971758
3.163100 0.965224
3.173000 0.959341
3.182900 0.954329
3.192800 0.950419
3.202700 0.947782
3.212600 0.946364
3.222500 0.945800
3.232400 0.945495
3.242300 0.944939
3.252200 0.944070
3.262100 0.943329
3.272000 0.943408
3.281900 0.944970
3.291800 0.948374
3.301700 0.953410
3.311600 0.959330
3.321500 0.965324
3.331400 0.971102
3.341300 0.977131
3.351200 0.984342
3.361100 0.993453
3.371000 1.004511
3.380900 1.017175
3.390800 1.031328
3.400700 1.047051
3.410600 1.063835
3.420500 1.079994
3.430400 1.093166
3.440300 1.101725
3.450200 1.105865
3.460100 1.107536
3.470000 1.109505
3.479900 1.114176
3.489800 1.122867
3.499700 1.135812
3.509600 1.152343
3.519500 1.170905
3.529400 1.189277
3.539300 1.205414
3.549200 1.218337
3.559100 1.228170
3.569000 1.235766
3.578900 1.242596
3.588800 1.250398
3.598700 1.260459
3.608600 1.273021
3.618500 1.287176
3.628400 1.301351
3.638300 1.314086
3.648200 1.324471
3.658100 1.331683
3.668000 1.334039
3.677900 1.329470
3.687800 1.317578
3.697700 1.300296
3.707600 1.280055
3.717500 1.258239
3.727400 1.235230
3.737300 1.210717
3.747200 1.184102
3.757100 1.155361
3.767000 1.125430
3.776900 1.095853
3.786800 1.068303
3.796700 1.044065
3.806600 1.023519
3.816500 1.006064
3.826400 0.990609
3.836300 0.976270
3.846200 0.962814
3.856100 0.950596
3.866000 0.940149
3.875900 0.931865
3.885800 0.925932
3.895700 0.922309
3.905600 0.920783
3.915500 0.921169
3.925400 0.923347
3.935300 0.927004
3.945200 0.931581
3.955100 0.936670
3.965000 0.942373
3.974900 0.949233
3.984800 0.957883
3.994700 0.968587
4.004600 0.980601
4.014500 0.991736
4.024400 0.998918
4.034300 0.999735
4.044200 0.993887
4.054100 0.983379
4.064000 0.971103
4.073900 0.959209
4.083800 0.948689
4.093700 0.939732
4.103600 0.932105
4.113500 0.925504
4.123400 0.919660
4.133300 0.914001
4.143200 0.907491
4.153100 0.899261
4.163000 0.889213
4.172900 0.877715
4.182800 0.865037
4.192700 0.851391
4.202600 0.837323
4.212500 0.823775
4.222400 0.811678
4.232300 0.801515
4.242200 0.793225
4.252100 0.786414
4.262000 0.780592
4.271900 0.775358
4.281800 0.770566
4.291700 0.766350
4.301600 0.762936
4.311500 0.760457
4.321400 0.758899
4.331300 0.758121
4.341200 0.758001
4.351100 0.758724
4.361000 0.760858
4.370900 0.764886
4.380800 0.770740
4.390700 0.777881
4.400600 0.785701
4.410500 0.793750
4.420400 0.801676
4.430300 0.809096
4.440200 0.815712
4.450100 0.821625
4.460000 0.827507
4.469900 0.834433
4.479800 0.843378
4.489700 0.854507
4.499600 0.866796
4.509500 0.878546
4.519400 0.888558
4.529300 0.896816
4.539200 0.904291
4.549100 0.912390
4.559000 0.922428
4.568900 0.935045
4.578800 0.949483
4.588700 0.963160
4.598600 0.972589
4.608500 0.975517
4.618400 0.971955
4.628300 0.963236
4.638200 0.950973
4.648100 0.936663
4.658000 0.921516
4.667900 0.906464
4.677800 0.891868
4.687700 0.876986
4.697600 0.860348
4.707500 0.841105
4.717400 0.819865
4.727300 0.798105
4.737200 0.777030
4.747100 0.757097
4.757000 0.738370
4.766900 0.720963
4.776800 0.705065
4.786700 0.690785
4.796600 0.678157
4.806500 0.667088
4.816400 0.657252
4.826300 0.648242
4.836200 0.639880
4.846100 0.632311
4.856000 0.625813
4.865900 0.620547
4.875800 0.616448
4.885700 0.613321
4.895600 0.611090
4.905500 0.609898
4.915400 0.609885
4.925300 0.610892
4.935200 0.612495
4.945100 0.614271
4.955000 0.615946
4.964900 0.617246
4.974800 0.617598
4.984700 0.616179
4.994600 0.612523
5.004500 0.607051
5.014400 0.600766
5.024300 0.594450
5.034200 0.588230
5.044100 0.581785
5.054000 0.574745
5.063900 0.566868
5.073800 0.558104
5.083700 0.548746
5.093600 0.539391
5.103500 0.530675
5.113400 0.523044
5.123300 0.516724
5.133200 0.511828
5.143100 0.508446
5.153000 0.506570
5.162900 0.505916
5.172800 0.505893
5.182700 0.505751
5.192600 0.504755
5.202500 0.502392
5.212400 0.498571
5.222300 0.493724
5.232200 0.488690
5.242100 0.484452
5.252000 0.481894
5.261900 0.481658
5.271800 0.484019
5.281700 0.488816
5.291600 0.495557
5.301500 0.503637
5.311400 0.512492
5.321300 0.521622
5.331200 0.530391
5.341100 0.537754
5.351000 0.542345
5.360900 0.543263
5.370800 0.540777
5.380700 0.535858
5.390600 0.529235
5.400500 0.521459
5.410400 0.513437
5.420300 0.506244
5.430200 0.500567
5.440100 0.496624
5.450000 0.494397
5.459900 0.493722
5.469800 0.494234
5.479700 0.495456
5.489600 0.497072
5.499500 0.499105
5.509400 0.501690
5.519300 0.504770
5.529200 0.508105
5.539100 0.511519
5.549000 0.514959
5.558900 0.518316
5.568800 0.521377
5.578700 0.524099
5.588600 0.526872
5.598500 0.530468
5.608400 0.535759
5.618300 0.543330
5.628200 0.553080
5.638100 0.563811
5.648000 0.573199
5.657900 0.578833
5.667800 0.579959
5.677700 0.578042
5.687600 0.575564
5.697500 0.574658
5.707400 0.576642
5.717300 0.582069
5.727200 0.590750
5.737100 0.601735
5.747000 0.613555
5.756900 0.624723
5.766800 0.633948
5.776700 0.640015
5.786600 0.641947
5.796500 0.639481
5.806400 0.633115
5.816300 0.623638
5.826200 0.611823
5.836100 0.598579
5.846000 0.584974
5.855900 0.571912
5.865800 0.559775
5.875700 0.548363
5.885600 0.537204
5.895500 0.525949
5.905400 0.514653
5.915300 0.503781
5.925200 0.493933
5.935100 0.485503
5.945000 0.478591
5.954900 0.473139
5.964800 0.469052
5.974700 0.466155
5.984600 0.464176
5.994500 0.462852
6.004400 0.462035
6.014300 0.461644
6.024200 0.461549
6.034100 0.461504
6.044000 0.461186
6.053900 0.460319
6.063800 0.458813
6.073700 0.456882
6.083600 0.455090
6.093500 0.454198
6.103400 0.454883
6.113300 0.457503
6.123200 0.461943
6.133100 0.467534
6.143000 0.473155
6.152900 0.477728
6.162800 0.480874
6.172700 0.482957
6.182600 0.484402
6.192500 0.485232
6.202400 0.485378
6.212300 0.485084
6.222200 0.484733
6.232100 0.484537
6.242000 0.484542
6.251900 0.484731
6.261800 0.485043
6.271700 0.485326
6.281600 0.485339
6.291500 0.484944
6.301400 0.484306
6.311300 0.483867
6.321200 0.484174
6.331100 0.485642
6.341000 0.488186
6.350900 0.491001
6.360800 0.492867
6.370700 0.492936
6.380600 0.491351
6.390500 0.489165
6.400400 0.487657
6.410300 0.487645
6.420200 0.489112
6.430100 0.491172
6.440000 0.492474
6.449900 0.492130
6.459800 0.490447
6.469700 0.488587
6.479600 0.487645
6.489500 0.488160
6.499400 0.490264
6.509300 0.493991
6.519200 0.499276
6.529100 0.505801
6.539000 0.513109
6.548900 0.520912
6.558800 0.528992
6.568700 0.536723
6.578600 0.542977
6.588500 0.546686
6.598400 0.547562
6.608300 0.546321
6.618200 0.544129
6.628100 0.541892
6.638000 0.540208
6.647900 0.539759
6.657800 0.541380
6.667700 0.545864
6.677600 0.553755
6.687500 0.565090
6.697400 0.579051
6.707300 0.593870
6.717200 0.607389
6.727100 0.618142
6.737000 0.625956
6.746900 0.631428
6.756800 0.634871
6.766700 0.635697
6.776600 0.632999
6.786500 0.627021
6.796400 0.619755
6.806300 0.613789
6.816200 0.610925
6.826100 0.611856
6.836000 0.616348
6.845900 0.623172
6.855800 0.629973
6.865700 0.633816
6.875600 0.632680
6.885500 0.626758
6.895400 0.618047
6.905300 0.608797
6.915200 0.600597
6.925100 0.594354
6.935000 0.590418
6.944900 0.588554
6.954800 0.587785
6.964700 0.586360
6.974600 0.582393
6.984500 0.575002
6.994400 0.564658
7.004300 0.552425
7.014200 0.539233
7.024100 0.525870
7.034000 0.513153
7.043900 0.501798
7.053800 0.492184
7.063700 0.484271
7.073600 0.477687
7.083500 0.471858
7.093400 0.466069
7.103300 0.459560
7.113200 0.451837
7.123100 0.443058
7.133000 0.434026
7.142900 0.425664
7.152800 0.418527
7.162700 0.412714
7.172600 0.408097
7.182500 0.404635
7.192400 0.402452
7.202300 0.401670
7.212200 0.402232
7.222100 0.403915
7.232000 0.406407
7.241900 0.409179
7.251800 0.411196
7.261700 0.411023
7.271600 0.407645
7.281500 0.401236
7.291400 0.392965
7.301300 0.384202
7.311200 0.375978
7.321100 0.368869
7.331000 0.363097
7.340900 0.358655
7.350800 0.355400
7.360700 0.353092
7.370600 0.351388
7.380500 0.349889
7.390400 0.348237
7.400300 0.346271
7.410200 0.344081
7.420100 0.341879
7.430000 0.339878
7.439900 0.338319
7.449800 0.337414
7.459700 0.337187
7.469600 0.337379
7.479500 0.337482
7.489400 0.336924
7.499300 0.335385
7.509200 0.332932
7.519100 0.329814
7.529000 0.326300
7.538900 0.322643
7.548800 0.319013
7.558700 0.315416
7.568600 0.311715
7.578500 0.307707
7.588400 0.303229
7.598300 0.298319
7.608200 0.293252
7.618100 0.288409
7.628000 0.284150
7.637900 0.280783
7.647800 0.278594
7.657700 0.277736
7.667600 0.278055
7.677500 0.279048
7.687400 0.280083
7.697300 0.280704
7.707200 0.280825
7.717100 0.280650
7.727000 0.280462
7.736900 0.280462
7.746800 0.280782
7.756700 0.281542
7.766600 0.282867
7.776500 0.284896
7.786400 0.287764
7.796300 0.291561
7.806200 0.296316
7.816100 0.302057
7.826000 0.308867
7.835900 0.316821
7.845800 0.325721
7.855700 0.334839
7.865600 0.342989
7.875500 0.348919
7.885400 0.351710
7.895300 0.350887
7.905200 0.346496
7.915100 0.339276
7.925000 0.330455
7.934900 0.321079
7.944800 0.311585
7.954700 0.301990
7.964600 0.292324
7.974500 0.282836
7.984400 0.273891
7.994300 0.265833
8.004200 0.258916
8.014100 0.253258
8.024000 0.248805
8.033900 0.245382
8.043800 0.242873
8.053700 0.241340
8.063600 0.240970
8.073500 0.241882
8.083400 0.243917
8.093300 0.246520
8.103200 0.248774
8.113100 0.249693
8.123000 0.248683
8.132900 0.245866
8.142800 0.241946
8.152700 0.237784
8.162600 0.234013
8.172500 0.230894
8.182400 0.228363
8.192300 0.226166
8.202200 0.224014
8.212100 0.221711
8.222000 0.219209
8.231900 0.216561
8.241800 0.213821
8.251700 0.211034
8.261600 0.208300
8.271500 0.205803
8.281400 0.203733
8.291300 0.202225
8.301200 0.201357
8.311100 0.201135
8.321000 0.201455
8.330900 0.202122
8.340800 0.202905
8.350700 0.203603
8.360600 0.204080
8.370500 0.204241
8.380400 0.203995
8.390300 0.203285
8.400200 0.202165
8.410100 0.200799
8.420000 0.199334
8.429900 0.197829
8.439800 0.196311
8.449700 0.194852
8.459600 0.193581
8.469500 0.192611
8.479400 0.191945
8.489300 0.191458
8.499200 0.190981
8.509100 0.190416
8.519000 0.189807
8.528900 0.189311
8.538800 0.189117
8.548700 0.189367
8.558600 0.190135
8.568500 0.191443
8.578400 0.193273
8.588300 0.195584
8.598200 0.198325
8.608100 0.201439
8.618000 0.204836
8.627900 0.208377
8.637800 0.211904
8.647700 0.215331
8.657600 0.218688
8.667500 0.222006
8.677400 0.225183
8.687300 0.228035
8.697200 0.230494
8.707100 0.232591
8.717000 0.234149
8.726900 0.234649
8.736800 0.233631
8.746700 0.231222
8.756600 0.228107
8.766500 0.225034
8.776400 0.222465
8.786300 0.220601
8.796200 0.219589
8.806100 0.219649
8.816000 0.221015
8.825900 0.223708
8.835800 0.227367
8.845700 0.231273
8.855600 0.234620
8.865500 0.236863
8.875400 0.237774
8.885300 0.237335
8.895200 0.235802
8.905100 0.233806
8.915000 0.232139
8.924900 0.231346
8.934800 0.231461
8.944700 0.232070
8.954600 0.232618
8.964500 0.232735
8.974400 0.232362
8.984300 0.231643
8.994200 0.230760
9.004100 0.229941
9.014000 0.229523
9.023900 0.229889
9.033800 0.231294
9.043700 0.233796
9.053600 0.237291
9.063500 0.241472
9.073400 0.245729
9.083300 0.249226
9.093200 0.251116
9.103100 0.250779
9.113000 0.248120
9.122900 0.243657
9.132800 0.238168
9.142700 0.232273
9.152600 0.226398
9.162500 0.220886
9.172400 0.216021
9.182300 0.211955
9.192200 0.208696
9.202100 0.206162
9.212000 0.204281
9.221900 0.203052
9.231800 0.202515
9.241700 0.202702
9.251600 0.203578
9.261500 0.205060
9.271400 0.207049
9.281300 0.209482
9.291200 0.212319
9.301100 0.215515
9.311000 0.218994
9.320900 0.222686
9.330800 0.226577
9.340700 0.230708
9.350600 0.235099
9.360500 0.239648
9.370400 0.244132
9.380300 0.248305
9.390200 0.251936
9.400100 0.254799
9.410000 0.256810
9.419900 0.258258
9.429800 0.259775
9.439700 0.262026
9.449600 0.265354
9.459500 0.269552
9.469400 0.273837
9.479300 0.277072
9.489200 0.278325
9.499100 0.277522
9.509000 0.275475
9.518900 0.273173
9.528800 0.271176
9.538700 0.269480
9.548600 0.267749
9.558500 0.265847
9.568400 0.264206
9.578300 0.263542
9.588200 0.264265
9.598100 0.266084
9.608000 0.267855
9.617900 0.267956
9.627800 0.265329
9.637700 0.260294
9.647600 0.254086
9.657500 0.247849
9.667400 0.242203
9.677300 0.237444
9.687200 0.233729
9.697100 0.231016
9.707000 0.228951
9.716900 0.226958
9.726800 0.224573
9.736700 0.221757
9.746600 0.218851
9.756500 0.216307
9.766400 0.214518
9.776300 0.213768
9.786200 0.214178
9.796100 0.215607
9.806000 0.217658
9.815900 0.219851
9.825800 0.221819
9.835700 0.223353
9.845600 0.224357
9.855500 0.224787
9.865400 0.224604
9.875300 0.223803
9.885200 0.222538
9.895100 0.221215
9.905000 0.220361
9.914900 0.220337
9.924800 0.221112
9.934700 0.222290
9.944600 0.223405
9.954500 0.224241
9.964400 0.224831
9.974300 0.225208
9.984200 0.225370
9.994100 0.225424
10.004000 0.225562
10.013900 0.225858
10.023800 0.226147
10.033700 0.226139
10.043600 0.225719
10.053500 0.225105
10.063400 0.224678
10.073300 0.224674
10.083200 0.225088
10.093100 0.225791
10.103000 0.226665
10.112900 0.227600
10.122800 0.228416
10.132700 0.228830
10.142600 0.228593
10.152500 0.227657
10.162400 0.226163
10.172300 0.224290
10.182200 0.222212
10.192100 0.220162
10.202000 0.218417
10.211900 0.217195
10.221800 0.216622
10.231700 0.216767
10.241600 0.217686
10.251500 0.219437
10.261400 0.221999
10.271300 0.225142
10.281200 0.228350
10.291100 0.230983
10.301000 0.232666
10.310900 0.233522
10.320800 0.234069
10.330700 0.234851
10.340600 0.236061
10.350500 0.237419
10.360400 0.238443
10.370300 0.238858
10.380200 0.238714
10.390100 0.238184
10.400000 0.237401
10.409900 0.236422
10.419800 0.235234
10.429700 0.233767
10.439600 0.231946
10.449500 0.229806
10.459400 0.227560
10.469300 0.225495
10.479200 0.223814
10.489100 0.222560
10.499000 0.221667
10.508900 0.221009
10.518800 0.220418
10.528700 0.219725
10.538600 0.218865
10.548500 0.217890
10.558400 0.216922
10.568300 0.216174
10.578200 0.215951
10.588100 0.216501
10.598000 0.217853
10.607900 0.219820
10.617800 0.222090
10.627700 0.224299
10.637600 0.226073
10.647500 0.227119
10.657400 0.227280
10.667300 0.226537
10.677200 0.224956
10.687100 0.222673
10.697000 0.219910
10.706900 0.216976
10.716800 0.214203
10.726700 0.211831
10.736600 0.209967
10.746500 0.208669
10.756400 0.208045
10.766300 0.208246
10.776200 0.209350
10.786100 0.211227
10.796000 0.213539
10.805900 0.215914
10.815800 0.218189
10.825700 0.220445
10.835600 0.222828
10.845500 0.225395
10.855400 0.228021
10.865300 0.230288
10.875200 0.231471
10.885100 0.230947
10.895000 0.228836
10.904900 0.226076
10.914800 0.223734
10.924700 0.222305
10.934600 0.221590
10.944500 0.221040
10.954400 0.220305
10.964300 0.219525
10.974200 0.218949
10.984100 0.218263
10.994000 0.216486
11.003900 0.212713
11.013800 0.206911
11.023700 0.199915
11.033600 0.192841
11.043500 0.186556
11.053400 0.181460
11.063300 0.177535
11.073200 0.174466
11.083100 0.171733
11.093000 0.168777
11.102900 0.165305
11.112800 0.161495
11.122700 0.157853
11.132600 0.154830
11.142500 0.152575
11.152400 0.150903
11.162300 0.149463
11.172200 0.147995
11.182100 0.146508
11.192000 0.145247
11.201900 0.144492
11.211800 0.144401
11.221700 0.144984
11.231600 0.146180
11.241500 0.147968
11.251400 0.150442
11.261300 0.153775
11.271200 0.158084
11.281100 0.163271
11.291000 0.168842
11.300900 0.173755
11.310800 0.176537
11.320700 0.176019
11.330600 0.172247
11.340500 0.166464
11.350400 0.160170
11.360300 0.154404
11.370200 0.149638
11.380100 0.145950
11.390000 0.143202
11.399900 0.141150
11.409800 0.139565
11.419700 0.138363
11.429600 0.137643
11.439500 0.137558
11.449400 0.138168
11.459300 0.139409
11.469200 0.141156
11.479100 0.143240
11.489000 0.145403
11.498900 0.147210
11.508800 0.148056
11.518700 0.147408
11.528600 0.145201
11.538500 0.141938
11.548400 0.138333
11.558300 0.134933
11.568200 0.132024
11.578100 0.129703
11.588000 0.127938
11.597900 0.126600
11.607800 0.125487
11.617700 0.124391
11.627600 0.123191
11.637500 0.121892
11.647400 0.120550
11.657300 0.119212
11.667200 0.117950
11.677100 0.116895
11.687000 0.116179
11.696900 0.115865
11.706800 0.115931
11.716700 0.116313
11.726600 0.116946
11.736500 0.117796
11.746400 0.118884
11.756300 0.120249
11.766200 0.121893
11.776100 0.123798
11.786000 0.125962
11.795900 0.128349
11.805800 0.130812
11.815700 0.133091
11.825600 0.134893
11.835500 0.135952
11.845400 0.136068
11.855300 0.135157
11.865200 0.133316
11.875100 0.130796
11.885000 0.127917
11.894900 0.125012
11.904800 0.122391
11.914700 0.120277
11.924600 0.118745
11.934500 0.117702
11.944400 0.116904
11.954300 0.116014
11.964200 0.114721
11.974100 0.112867
11.984000 0.110503
11.993900 0.107821
12.003800 0.105041
12.013700 0.102356
12.023600 0.099932
12.033500 0.097884
12.043400 0.096250
12.053300 0.094977
12.063200 0.093994
12.073100 0.093288
12.083000 0.092913
12.092900 0.092913
12.102800 0.093290
12.112700 0.093987
12.122600 0.094890
12.132500 0.095823
12.142400 0.096559
12.152300 0.096853
12.162200 0.096539
12.172100 0.095624
12.182000 0.094310
12.191900 0.092890
12.201800 0.091593
12.211700 0.090529
12.221600 0.089708
12.231500 0.089109
12.241400 0.088720
12.251300 0.088563
12.261200 0.088692
12.271100 0.089173
12.281000 0.090050
12.290900 0.091316
12.300800 0.092892
12.310700 0.094644
12.320600 0.096403
12.330500 0.097926
12.340400 0.098846
12.350300 0.098795
12.360200 0.097720
12.370100 0.095985
12.380000 0.094098
12.389900 0.092379
12.399800 0.090860
12.409700 0.089400
12.419600 0.087833
12.429500 0.086104
12.439400 0.084322
12.449300 0.082715
12.459200 0.081509
12.469100 0.080842
12.479000 0.080738
12.488900 0.081090
12.498800 0.081642
12.508700 0.082001
12.518600 0.081742
12.528500 0.080640
12.538400 0.078820
12.548300 0.076631
12.558200 0.074402
12.568100 0.072308
12.578000 0.070400
12.587900 0.068680
12.597800 0.067165
12.607700 0.065895
12.617600 0.064902
12.627500 0.064177
12.637400 0.063659
12.647300 0.063259
12.657200 0.062884
12.667100 0.062468
12.677000 0.061994
12.686900 0.061492
12.696800 0.061020
12.706700 0.060628
12.716600 0.060343
12.726500 0.060156
12.736400 0.060026
12.746300 0.059896
12.756200 0.059708
12.766100 0.059406
12.776000 0.058949
12.785900 0.058337
12.795800 0.057588
12.805700 0.056722
12.815600 0.055752
12.825500 0.054701
12.835400 0.053627
12.845300 0.052614
12.855200 0.051724
12.865100 0.050971
12.875000 0.050324
12.884900 0.049738
12.894800 0.049184
12.904700 0.048663
12.914600 0.048205
12.924500 0.047844
12.934400 0.047601
12.944300 0.047461
12.954200 0.047352
12.964100 0.047143
12.974000 0.046702
12.983900 0.045981
12.993800 0.045059
13.003700 0.044090
13.013600 0.043215
13.023500 0.042504
13.033400 0.041961
13.043300 0.041564
13.053200 0.041282
13.063100 0.041083
13.073000 0.040937
13.082900 0.040826
13.092800 0.040730
13.102700 0.040625
13.112600 0.040484
13.122500 0.040285
13.132400 0.040017
13.142300 0.039671
13.152200 0.039244
13.162100 0.038774
13.172000 0.038319
13.181900 0.037904
13.191800 0.037492
13.201700 0.036998
13.211600 0.036348
13.221500 0.035539
13.231400 0.034646
13.241300 0.033775
13.251200 0.033014
13.261100 0.032399
13.271000 0.031914
13.280900 0.031498
13.290800 0.031072
13.300700 0.030592
13.310600 0.030081
13.320500 0.029606
13.330400 0.029228
13.340300 0.028969
13.350200 0.028812
13.360100 0.028717
13.370000 0.028622
13.379900 0.028477
13.389800 0.028264
13.399700 0.027997
13.409600 0.027703
13.419500 0.027403
13.429400 0.027117
13.439300 0.026859
13.449200 0.026636
13.459100 0.026439
13.469000 0.026247
13.478900 0.026033
13.488800 0.025778
13.498700 0.025476
13.508600 0.025129
13.518500 0.024751
13.528400 0.024379
13.538300 0.024070
13.548200 0.023870
13.558100 0.023792
13.568000 0.023815
13.577900 0.023891
13.587800 0.023978
13.597700 0.024054
13.607600 0.024121
13.617500 0.024188
13.627400 0.024252
13.637300 0.024309
13.647200 0.024355
13.657100 0.024400
13.667000 0.024469
13.676900 0.024599
13.686800 0.024813
13.696700 0.025090
13.706600 0.025348
13.716500 0.025486
13.726400 0.025459
13.736300 0.025301
13.746200 0.025091
13.756100 0.024897
13.766000 0.024759
13.775900 0.024681
13.785800 0.024651
13.795700 0.024642
13.805600 0.024628
13.815500 0.024584
13.825400 0.024475
13.835300 0.024268
13.845200 0.023964
13.855100 0.023612
13.865000 0.023265
13.874900 0.022934
13.884800 0.022591
13.894700 0.022213
13.904600 0.021814
13.914500 0.021429
13.924400 0.021079
13.934300 0.020752
13.944200 0.020416
13.954100 0.020040
13.964000 0.019611
13.973900 0.019141
13.983800 0.018661
13.993700 0.018206
14.003600 0.017799
14.013500 0.017459
14.023400 0.017202
14.033300 0.017045
14.043200 0.016992
14.053100 0.017044
14.063000 0.017195
14.072900 0.017433
14.082800 0.017725
14.092700 0.018013
14.102600 0.018220
14.112500 0.018288
14.122400 0.018202
14.132300 0.017998
14.142200 0.017739
14.152100 0.017482
14.162000 0.017261
14.171900 0.017086
14.181800 0.016954
14.191700 0.016853
14.201600 0.016775
14.211500 0.016706
14.221400 0.016628
14.231300 0.016531
14.241200 0.016432
14.251100 0.016354
14.261000 0.016310
14.270900 0.016304
14.280800 0.016333
14.290700 0.016401
14.300600 0.016505
14.310500 0.016632
14.320400 0.016752
14.330300 0.016828
14.340200 0.016833
14.350100 0.016762
14.360000 0.016630
14.369900 0.016460
14.379800 0.016288
14.389700 0.016158
14.399600 0.016107
14.409500 0.016155
14.419400 0.016310
14.429300 0.016565
14.439200 0.016908
14.449100 0.017320
14.459000 0.017778
14.468900 0.018257
14.478800 0.018731
14.488700 0.019173
14.498600 0.019550
14.508500 0.019789
14.518400 0.019794
14.528300 0.019508
14.538200 0.018961
14.548100 0.018243
14.558000 0.017452
14.567900 0.016667
14.577800 0.015940
14.587700 0.015292
14.597600 0.014725
14.607500 0.014225
14.617400 0.013780
14.627300 0.013384
14.637200 0.013044
14.647100 0.012767
14.657000 0.012554
14.666900 0.012391
14.676800 0.012260
14.686700 0.012145
14.696600 0.012026
14.706500 0.011890
14.716400 0.011732
14.726300 0.011560
14.736200 0.011386
14.746100 0.011217
14.756000 0.011058
14.765900 0.010912
14.775800 0.010784
14.785700 0.010677
14.795600 0.010587
14.805500 0.010505
14.815400 0.010421
14.825300 0.010326
14.835200 0.010217
14.845100 0.010098
14.855000 0.009973
14.864900 0.009855
14.874800 0.009749
14.884700 0.009663
14.894600 0.009594
14.904500 0.009543
14.914400 0.009503
14.924300 0.009471
14.934200 0.009439
14.944100 0.009405
14.954000 0.009372
14.963900 0.009346
14.973800 0.009323
14.983700 0.009291
14.993600 0.009239
15.003500 0.009168
15.013400 0.009094
15.023300 0.009042
15.033200 0.009026
15.043100 0.009051
15.053000 0.009102
15.062900 0.009154
15.072800 0.009168
15.082700 0.009111
15.092600 0.008975
15.102500 0.008784
15.112400 0.008573
15.122300 0.008377
15.132200 0.008214
15.142100 0.008094
15.152000 0.008016
15.161900 0.007979
15.171800 0.007975
15.181700 0.007992
15.191600 0.008019
15.201500 0.008049
15.211400 0.008077
15.221300 0.008099
15.231200 0.008112
15.241100 0.008121
15.251000 0.008135
15.260900 0.008159
15.270800 0.008190
15.280700 0.008211
15.290600 0.008194
15.300500 0.008114
15.310400 0.007968
15.320300 0.007777
15.330200 0.007577
15.340100 0.007394
15.350000 0.007241
15.359900 0.007119
15.369800 0.007031
15.379700 0.006973
15.389600 0.006937
15.399500 0.006910
15.409400 0.006880
15.419300 0.006840
15.429200 0.006795
15.439100 0.006752
15.449000 0.006712
15.458900 0.006670
15.468800 0.006622
15.478700 0.006569
15.488600 0.006516
15.498500 0.006468
15.508400 0.006435
15.518300 0.006418
15.528200 0.006409
15.538100 0.006386
15.548000 0.006332
15.557900 0.006243
15.567800 0.006137
15.577700 0.006035
15.587600 0.005951
15.597500 0.005888
15.607400 0.005844
15.617300 0.005811
15.627200 0.005786
15.637100 0.005763
15.647000 0.005737
15.656900 0.005699
15.666800 0.005638
15.676700 0.005548
15.686600 0.005435
15.696500 0.005312
15.706400 0.005192
15.716300 0.005086
15.726200 0.005001
15.736100 0.004938
15.746000 0.004898
15.755900 0.004876
15.765800 0.004869
15.775700 0.004872
15.785600 0.004881
15.795500 0.004890
15.805400 0.004895
15.815300 0.004891
15.825200 0.004877
15.835100 0.004856
15.845000 0.004831
15.854900 0.004802
15.864800 0.004764
15.874700 0.004714
15.884600 0.004652
15.894500 0.004583
15.904400 0.004510
15.914300 0.004438
15.924200 0.004372
15.934100 0.004316
15.944000 0.004271
15.953900 0.004239
15.963800 0.004221
15.973700 0.004217
15.983600 0.004226
15.993500 0.004245
16.003400 0.004267
16.013300 0.004282
16.023200 0.004284
16.033100 0.004270
16.043000 0.004245
16.052900 0.004217
16.062800 0.004190
16.072700 0.004165
16.082600 0.004136
16.092500 0.004095
16.102400 0.004041
16.112300 0.003979
16.122200 0.003915
16.132100 0.003857
16.142000 0.003810
16.151900 0.003775
16.161800 0.003753
16.171700 0.003744
16.181600 0.003747
16.191500 0.003759
16.201400 0.003777
16.211300 0.003797
16.221200 0.003817
16.231100 0.003834
16.241000 0.003843
16.250900 0.003844
16.260800 0.003841
16.270700 0.003840
16.280600 0.003843
16.290500 0.003849
16.300400 0.003855
16.310300 0.003858
16.320200 0.003851
16.330100 0.003833
16.340000 0.003803
16.349900 0.003767
16.359800 0.003732
16.369700 0.003703
16.379600 0.003685
16.389500 0.003681
16.399400 0.003690
16.409300 0.003705
16.419200 0.003720
16.429100 0.003723
16.439000 0.003706
16.448900 0.003666
16.458800 0.003606
16.468700 0.003539
16.478600 0.003473
16.488500 0.003416
16.498400 0.003370
16.508300 0.003337
16.518200 0.003316
16.528100 0.003307
16.538000 0.003310
16.547900 0.003325
16.557800 0.003346
16.567700 0.003367
16.577600 0.003379
16.587500 0.003374
16.597400 0.003350
16.607300 0.003306
16.617200 0.003251
16.627100 0.003195
16.637000 0.003147
16.646900 0.003110
16.656800 0.003080
16.666700 0.003056
16.676600 0.003035
16.686500 0.003016
16.696400 0.002999
16.706300 0.002982
16.716200 0.002962
16.726100 0.002934
16.736000 0.002898
16.745900 0.002857
16.755800 0.002816
16.765700 0.002778
16.775600 0.002744
16.785500 0.002715
16.795400 0.002686
16.805300 0.002654
16.815200 0.002618
16.825100 0.002583
16.835000 0.002552
16.844900 0.002530
16.854800 0.002516
16.864700 0.002510
16.874600 0.002507
16.884500 0.002504
16.894400 0.002501
16.904300 0.002496
16.914200 0.002492
16.924100 0.002490
16.934000 0.002492
16.943900 0.002498
16.953800 0.002508
16.963700 0.002524
16.973600 0.002546
16.983500 0.002578
16.993400 0.002620
17.003300 0.002669
17.013200 0.002719
17.023100 0.002755
17.033000 0.002764
17.042900 0.002742
17.052800 0.002697
17.062700 0.002642
17.072600 0.002589
17.082500 0.002545
17.092400 0.002508
17.102300 0.002477
17.112200 0.002448
17.122100 0.002417
17.132000 0.002386
17.141900 0.002355
17.151800 0.002328
17.161700 0.002305
17.171600 0.002283
17.181500 0.002261
17.191400 0.002239
17.201300 0.002217
17.211200 0.002195
17.221100 0.002173
17.231000 0.002149
17.240900 0.002124
17.250800 0.002098
17.260700 0.002073
17.270600 0.002050
17.280500 0.002028
17.290400 0.002009
17.300300 0.001992
17.310200 0.001979
17.320100 0.001970
17.330000 0.001964
17.339900 0.001958
17.349800 0.001952
17.359700 0.001943
17.369600 0.001933
17.379500 0.001924
17.389400 0.001916
17.399300 0.001909
17.409200 0.001903
17.419100 0.001896
17.429000 0.001885
17.438900 0.001873
17.448800 0.001860
17.458700 0.001848
17.468600 0.001835
17.478500 0.001823
17.488400 0.001812
17.498300 0.001802
17.508200 0.001796
17.518100 0.001793
17.528000 0.001794
17.537900 0.001797
17.547800 0.001800
17.557700 0.001802
17.567600 0.001803
17.577500 0.001802
17.587400 0.001797
17.597300 0.001790
17.607200 0.001778
17.617100 0.001762
17.627000 0.001744
17.636900 0.001724
17.646800 0.001703
17.656700 0.001683
17.666600 0.001665
17.676500 0.001652
17.686400 0.001643
17.696300 0.001637
17.706200 0.001634
17.716100 0.001633
17.726000 0.001631
17.735900 0.001626
17.745800 0.001618
17.755700 0.001604
17.765600 0.001587
17.775500 0.001567
17.785400 0.001546
17.795300 0.001525
17.805200 0.001506
17.815100 0.001489
17.825000 0.001474
17.834900 0.001461
17.844800 0.001449
17.854700 0.001437
17.864600 0.001424
17.874500 0.001411
17.884400 0.001396
17.894300 0.001379
17.904200 0.001360
17.914100 0.001339
17.924000 0.001318
17.933900 0.001298
17.943800 0.001281
17.953700 0.001267
17.963600 0.001255
17.973500 0.001247
17.983400 0.001241
17.993300 0.001237
18.003200 0.001235
18.013100 0.001233
18.023000 0.001231
18.032900 0.001228
18.042800 0.001224
18.052700 0.001218
18.062600 0.001211
18.072500 0.001204
18.082400 0.001197
18.092300 0.001190
18.102200 0.001183
18.112100 0.001177
18.122000 0.001172
18.131900 0.001169
18.141800 0.001166
18.151700 0.001165
18.161600 0.001164
18.171500 0.001164
18.181400 0.001164
18.191300 0.001163
18.201200 0.001161
18.211100 0.001158
18.221000 0.001155
18.230900 0.001152
18.240800 0.001150
18.250700 0.001148
18.260600 0.001149
18.270500 0.001150
18.280400 0.001152
18.290300 0.001154
18.300200 0.001156
18.310100 0.001158
18.320000 0.001161
18.329900 0.001164
18.339800 0.001167
18.349700 0.001170
18.359600 0.001172
18.369500 0.001176
18.379400 0.001180
18.389300 0.001183
18.399200 0.001186
18.409100 0.001186
18.419000 0.001183
18.428900 0.001176
18.438800 0.001166
18.448700 0.001154
18.458600 0.001142
18.468500 0.001130
18.478400 0.001119
18.488300 0.001109
18.498200 0.001098
18.508100 0.001088
18.518000 0.001079
18.527900 0.001069
18.537800 0.001062
18.547700 0.001055
18.557600 0.001051
18.567500 0.001048
18.577400 0.001046
18.587300 0.001044
18.597200 0.001042
18.607100 0.001038
18.617000 0.001033
18.626900 0.001027
18.636800 0.001020
18.646700 0.001014
18.656600 0.001009
18.666500 0.001004
18.676400 0.001000
18.686300 0.000996
18.696200 0.000992
18.706100 0.000988
18.716000 0.000984
18.725900 0.000980
18.735800 0.000975
18.745700 0.000971
18.755600 0.000966
18.765500 0.000961
18.775400 0.000956
18.785300 0.000951
18.795200 0.000947
18.805100 0.000943
18.815000 0.000939
18.824900 0.000936
18.834800 0.000933
18.844700 0.000930
18.854600 0.000927
18.864500 0.000925
18.874400 0.000922
18.884300 0.000920
18.894200 0.000918
18.904100 0.000916
18.914000 0.000915
18.923900 0.000914
18.933800 0.000912
18.943700 0.000910
18.953600 0.000908
18.963500 0.000906
18.973400 0.000905
18.983300 0.000904
18.993200 0.000904
19.003100 0.000904
19.013000 0.000904
19.022900 0.000902
19.032800 0.000899
19.042700 0.000896
19.052600 0.000892
19.062500 0.000889
19.072400 0.000885
19.082300 0.000883
19.092200 0.000881
19.102100 0.000879
19.112000 0.000877
19.121900 0.000875
19.131800 0.000872
19.141700 0.000869
19.151600 0.000866
19.161500 0.000862
19.171400 0.000859
19.181300 0.000856
19.191200 0.000854
19.201100 0.000852
19.211000 0.000851
19.220900 0.000850
19.230800 0.000849
19.240700 0.000847
19.250600 0.000845
19.260500 0.000843
19.270400 0.000841
19.280300 0.000838
19.290200 0.000836
19.300100 0.000834
19.310000 0.000832
19.319900 0.000830
19.329800 0.000828
19.339700 0.000827
19.349600 0.000826
19.359500 0.000826
19.369400 0.000825
19.379300 0.000824
19.389200 0.000823
19.399100 0.000821
19.409000 0.000819
19.418900 0.000816
19.428800 0.000813
19.438700 0.000810
19.448600 0.000808
19.458500 0.000805
19.468400 0.000803
19.478300 0.000802
19.488200 0.000800
19.498100 0.000798
19.508000 0.000796
19.517900 0.000795
19.527800 0.000793
19.537700 0.000792
19.547600 0.000791
19.557500 0.000791
19.567400 0.000790
19.577300 0.000790
19.587200 0.000789
19.597100 0.000789
19.607000 0.000788
19.616900 0.000787
19.626800 0.000786
19.636700 0.000784
19.646600 0.000783
19.656500 0.000781
19.666400 0.000779
19.676300 0.000777
19.686200 0.000775
19.696100 0.000772
19.706000 0.000770
19.715900 0.000768
19.725800 0.000765
19.735700 0.000763
19.745600 0.000760
19.755500 0.000758
19.765400 0.000757
19.775300 0.000756
19.785200 0.000755
19.795100 0.000755
19.805000 0.000754
19.814900 0.000753
19.824800 0.000752
19.834700 0.000750
19.844600 0.000747
19.854500 0.000745
19.864400 0.000743
19.874300 0.000741
19.884200 0.000740
19.894100 0.000738
19.904000 0.000737
19.913900 0.000736
19.923800 0.000735
19.933700 0.000734
19.943600 0.000733
19.953500 0.000731
19.963400 0.000730
19.973300 0.000728
19.983200 0.000726
19.993100 0.000724
20.003000 0.000723
20.012900 0.000721
20.022800 0.000719
20.032700 0.000718
20.042600 0.000716
20.052500 0.000715
20.062400 0.000714
20.072300 0.000713
20.082200 0.000711
20.092100 0.000710
20.102000 0.000708
20.111900 0.000707
20.121800 0.000705
20.131700 0.000704
20.141600 0.000702
20.151500 0.000701
20.161400 0.000700
20.171300 0.000699
20.181200 0.000698
20.191100 0.000697
20.201000 0.000696
20.210900 0.000695
20.220800 0.000695
20.230700 0.000694
20.240600 0.000693
20.250500 0.000692
20.260400 0.000691
20.270300 0.000690
20.280200 0.000689
20.290100 0.000687
20.300000 0.000686
20.309900 0.000685
20.319800 0.000684
20.329700 0.000683
20.339600 0.000682
20.349500 0.000681
20.359400 0.000680
20.369300 0.000679
20.379200 0.000678
20.389100 0.000676
20.399000 0.000675
20.408900 0.000674
20.418800 0.000673
20.428700 0.000671
20.438600 0.000670
20.448500 0.000669
20.458400 0.000668
20.468300 0.000667
20.478200 0.000666
20.488100 0.000665
20.498000 0.000664
20.507900 0.000663
20.517800 0.000663
20.527700 0.000662
20.537600 0.000661
20.547500 0.000661
20.557400 0.000660
20.567300 0.000659
20.577200 0.000658
20.587100 0.000658
20.597000 0.000657
20.606900 0.000656
20.616800 0.000656
20.626700 0.000655
20.636600 0.000654
20.646500 0.000653
20.656400 0.000653
20.666300 0.000652
20.676200 0.000651
20.686100 0.000650
20.696000 0.000649
20.705900 0.000648
20.715800 0.000647
20.725700 0.000646
20.735600 0.000644
20.745500 0.000643
20.755400 0.000642
20.765300 0.000641
20.775200 0.000640
20.785100 0.000640
20.795000 0.000639
20.804900 0.000638
20.814800 0.000637
20.824700 0.000636
20.834600 0.000636
20.844500 0.000635
20.854400 0.000634
20.864300 0.000634
20.874200 0.000633
20.884100 0.000632
20.894000 0.000630
20.903900 0.000629
20.913800 0.000628
20.923700 0.000627
20.933600 0.000626
20.943500 0.000625
20.953400 0.000624
20.963300 0.000623
20.973200 0.000622
20.983100 0.000621
20.993000 0.000620
21.002900 0.000619
21.012800 0.000618
21.022700 0.000617
21.032600 0.000616
21.042500 0.000616
21.052400 0.000615
21.062300 0.000614
21.072200 0.000613
21.082100 0.000612
21.092000 0.000611
21.101900 0.000611
21.111800 0.000610
21.121700 0.000609
21.131600 0.000609
21.141500 0.000608
21.151400 0.000607
21.161300 0.000606
21.171200 0.000606
21.181100 0.000605
21.191000 0.000604
21.200900 0.000603
21.210800 0.000603
21.220700 0.000602
21.230600 0.000601
21.240500 0.000601
21.250400 0.000600
21.260300 0.000599
21.270200 0.000599
21.280100 0.000598
21.290000 0.000598
21.299900 0.000597
21.309800 0.000597
21.319700 0.000596
21.329600 0.000595
21.339500 0.000594
21.349400 0.000594
21.359300 0.000593
21.369200 0.000592
21.379100 0.000591
21.389000 0.000590
21.398900 0.000589
21.408800 0.000589
21.418700 0.000588
21.428600 0.000588
21.438500 0.000587
21.448400 0.000586
21.458300 0.000586
21.468200 0.000585
21.478100 0.000585
21.488000 0.000584
21.497900 0.000584
21.507800 0.000583
21.517700 0.000583
21.527600 0.000583
21.537500 0.000582
21.547400 0.000582
21.557300 0.000581
21.567200 0.000580
21.577100 0.000579
21.587000 0.000578
21.596900 0.000577
21.606800 0.000576
21.616700 0.000575
21.626600 0.000574
21.636500 0.000573
21.646400 0.000573
21.656300 0.000572
21.666200 0.000571
21.676100 0.000570
21.686000 0.000569
21.695900 0.000568
21.705800 0.000567
21.715700 0.000566
21.725600 0.000565
21.735500 0.000564
21.745400 0.000563
21.755300 0.000563
21.765200 0.000562
21.775100 0.000561
21.785000 0.000560
21.794900 0.000559
21.804800 0.000558
21.814700 0.000557
21.824600 0.000556
21.834500 0.000556
21.844400 0.000555
21.854300 0.000554
21.864200 0.000553
21.874100 0.000552
21.884000 0.000552
21.893900 0.000551
21.903800 0.000550
21.913700 0.000549
21.923600 0.000549
21.933500 0.000548
21.943400 0.000547
21.953300 0.000547
21.963200 0.000546
21.973100 0.000545
21.983000 0.000544
21.992900 0.000544
22.002800 0.000543
22.012700 0.000543
22.022600 0.000542
22.032500 0.000541
22.042400 0.000541
22.052300 0.000540
22.062200 0.000539
22.072100 0.000539
22.082000 0.000538
22.091900 0.000537
22.101800 0.000537
22.111700 0.000536
22.121600 0.000535
22.131500 0.000535
22.141400 0.000534
22.151300 0.000533
22.161200 0.000533
22.171100 0.000532
22.181000 0.000532
22.190900 0.000531
22.200800 0.000530
22.210700 0.000530
22.220600 0.000529
22.230500 0.000529
22.240400 0.000528
22.250300 0.000527
22.260200 0.000527
22.270100 0.000526
22.280000 0.000526
22.289900 0.000525
22.299800 0.000524
22.309700 0.000524
22.319600 0.000523
22.329500 0.000523
22.339400 0.000522
22.349300 0.000521
22.359200 0.000521
22.369100 0.000520
22.379000 0.000519
22.388900 0.000519
22.398800 0.000518
22.408700 0.000518
22.418600 0.000517
22.428500 0.000516
22.438400 0.000516
22.448300 0.000515
22.458200 0.000515
22.468100 0.000514
22.478000 0.000513
22.487900 0.000513
22.497800 0.000512
22.507700 0.000512
22.517600 0.000511
22.527500 0.000511
22.537400 0.000510
22.547300 0.000509
22.557200 0.000509
22.567100 0.000508
22.577000 0.000508
22.586900 0.000507
22.596800 0.000506
22.606700 0.000506
22.616600 0.000505
22.626500 0.000505
22.636400 0.000504
22.646300 0.000503
22.656200 0.000503
22.666100 0.000502
22.676000 0.000502
22.685900 0.000501
22.695800 0.000501
22.705700 0.000500
22.715600 0.000500
22.725500 0.000499
22.735400 0.000498
22.745300 0.000498
22.755200 0.000497
22.765100 0.000497
22.775000 0.000496
22.784900 0.000496
22.794800 0.000495
22.804700 0.000495
22.814600 0.000494
22.824500 0.000494
22.834400 0.000493
22.844300 0.000493
22.854200 0.000492
22.864100 0.000492
22.874000 0.000491
22.883900 0.000491
22.893800 0.000490
22.903700 0.000489
22.913600 0.000489
22.923500 0.000488
22.933400 0.000488
22.943300 0.000487
22.953200 0.000486
22.963100 0.000486
22.973000 0.000485
22.982900 0.000485
22.992800 0.000484
23.002700 0.000484
23.012600 0.000483
23.022500 0.000483
23.032400 0.000482
23.042300 0.000482
23.052200 0.000481
23.062100 0.000481
23.072000 0.000480
23.081900 0.000479
23.091800 0.000479
23.101700 0.000478
23.111600 0.000478
23.121500 0.000477
23.131400 0.000477
23.141300 0.000476
23.151200 0.000476
23.161100 0.000475
23.171000 0.000475
23.180900 0.000474
23.190800 0.000474
23.200700 0.000473
23.210600 0.000473
23.220500 0.000472
23.230400 0.000472
23.240300 0.000471
23.250200 0.000471
23.260100 0.000470
23.270000 0.000470
23.279900 0.000469
23.289800 0.000469
23.299700 0.000468
23.309600 0.000468
23.319500 0.000467
23.329400 0.000467
23.339300 0.000466
23.349200 0.000466
23.359100 0.000465
23.369000 0.000465
23.378900 0.000464
23.388800 0.000464
23.398700 0.000463
23.408600 0.000463
23.418500 0.000462
23.428400 0.000462
23.438300 0.000461
23.448200 0.000461
23.458100 0.000460
23.468000 0.000460
23.477900 0.000460
23.487800 0.000459
23.497700 0.000459
23.507600 0.000458
23.517500 0.000458
23.527400 0.000457
23.537300 0.000457
23.547200 0.000457
23.557100 0.000456
23.567000 0.000456
23.576900 0.000455
23.586800 0.000455
23.596700 0.000455
23.606600 0.000454
23.616500 0.000454
23.626400 0.000453
23.636300 0.000453
23.646200 0.000452
23.656100 0.000451
23.666000 0.000451
23.675900 0.000450
23.685800 0.000450
23.695700 0.000449
23.705600 0.000449
23.715500 0.000448
23.725400 0.000448
23.735300 0.000447
23.745200 0.000447
23.755100 0.000446
23.765000 0.000446
23.774900 0.000445
23.784800 0.000445
23.794700 0.000444
23.804600 0.000444
23.814500 0.000443
23.824400 0.000443
23.834300 0.000442
23.844200 0.000442
23.854100 0.000442
23.864000 0.000441
23.873900 0.000441
23.883800 0.000440
23.893700 0.000440
23.903600 0.000439
23.913500 0.000439
23.923400 0.000438
23.933300 0.000438
23.943200 0.000437
23.953100 0.000437
23.963000 0.000437
23.972900 0.000436
23.982800 0.000436
23.992700 0.000435
24.002600 0.000435
24.012500 0.000434
24.022400 0.000434
24.032300 0.000433
24.042200 0.000433
24.052100 0.000433
24.062000 0.000432
24.071900 0.000432
24.081800 0.000431
24.091700 0.000431
24.101600 0.000430
24.111500 0.000430
24.121400 0.000430
24.131300 0.000429
24.141200 0.000429
24.151100 0.000428
24.161000 0.000428
24.170900 0.000427
24.180800 0.000427
24.190700 0.000426
24.200600 0.000426
24.210500 0.000426
24.220400 0.000425
24.230300 0.000425
24.240200 0.000424
24.250100 0.000424
24.260000 0.000424
24.269900 0.000423
24.279800 0.000423
24.289700 0.000422
24.299600 0.000422
24.309500 0.000421
24.319400 0.000421
24.329300 0.000421
24.339200 0.000420
24.349100 0.000420
24.359000 0.000419
24.368900 0.000419
24.378800 0.000418
24.388700 0.000418
24.398600 0.000418
24.408500 0.000417
24.418400 0.000417
24.428300 0.000416
24.438200 0.000416
24.448100 0.000416
24.458000 0.000415
24.467900 0.000415
24.477800 0.000414
24.487700 0.000414
24.497600 0.000414
24.507500 0.000413
24.517400 0.000413
24.527300 0.000412
24.537200 0.000412
24.547100 0.000412
24.557000 0.000411
24.566900 0.000411
24.576800 0.000410
24.586700 0.000410
24.596600 0.000410
24.606500 0.000409
24.616400 0.000409
24.626300 0.000408
24.636200 0.000408
24.646100 0.000408
24.656000 0.000407
24.665900 0.000407
24.675800 0.000406
24.685700 0.000406
24.695600 0.000406
24.705500 0.000405
24.715400 0.000405
24.725300 0.000404
24.735200 0.000404
24.745100 0.000404
24.755000 0.000403
24.764900 0.000403
24.774800 0.000402
24.784700 0.000402
24.794600 0.000402
24.804500 0.000401
24.814400 0.000401
24.824300 0.000400
24.834200 0.000400
24.844100 0.000400
24.854000 0.000399
24.863900 0.000399
24.873800 0.000399
24.883700 0.000398
24.893600 0.000398
24.903500 0.000397
24.913400 0.000397
24.923300 0.000397
24.933200 0.000396
24.943100 0.000396
24.953000 0.000396
24.962900 0.000395
24.972800 0.000395
24.982700 0.000394
24.992600 0.000394
25.002500 0.000394
25.012400 0.000393
25.022300 0.000393
25.032200 0.000393
25.042100 0.000392
25.052000 0.000392
25.061900 0.000391
25.071800 0.000391
25.081700 0.000391
25.091600 0.000390
25.101500 0.000390
25.111400 0.000390
25.121300 0.000389
25.131200 0.000389
25.141100 0.000388
25.151000 0.000388
25.160900 0.000388
25.170800 0.000387
25.180700 0.000387
25.190600 0.000387
25.200500 0.000386
25.210400 0.000386
25.220300 0.000386
25.230200 0.000385
25.240100 0.000385
25.250000 0.000384
25.259900 0.000384
25.269800 0.000384
25.279700 0.000383
25.289600 0.000383
25.299500 0.000383
25.309400 0.000382
25.319300 0.000382
25.329200 0.000382
25.339100 0.000381
25.349000 0.000381
25.358900 0.000380
25.368800 0.000380
25.378700 0.000380
25.388600 0.000379
25.398500 0.000379
25.408400 0.000379
25.418300 0.000378
25.428200 0.000378
25.438100 0.000378
25.448000 0.000377
25.457900 0.000377
25.467800 0.000377
25.477700 0.000376
25.487600 0.000376
25.497500 0.000376
25.507400 0.000375
25.517300 0.000375
25.527200 0.000375
25.537100 0.000374
25.547000 0.000374
25.556900 0.000373
25.566800 0.000373
25.576700 0.000373
25.586600 0.000372
25.596500 0.000372
25.606400 0.000372
25.616300 0.000371
25.626200 0.000371
25.636100 0.000371
25.646000 0.000370
25.655900 0.000370
25.665800 0.000370
25.675700 0.000369
25.685600 0.000369
25.695500 0.000369
25.705400 0.000368
25.715300 0.000368
25.725200 0.000368
25.735100 0.000367
25.745000 0.000367
25.754900 0.000367
25.764800 0.000366
25.774700 0.000366
25.784600 0.000366
25.794500 0.000365
25.804400 0.000365
25.814300 0.000365
25.824200 0.000364
25.834100 0.000364
25.844000 0.000364
25.853900 0.000363
25.863800 0.000363
25.873700 0.000363
25.883600 0.000362
25.893500 0.000362
25.903400 0.000362
25.913300 0.000361
25.923200 0.000361
25.933100 0.000361
25.943000 0.000360
25.952900 0.000360
25.962800 0.000360
25.972700 0.000359
25.982600 0.000359
25.992500 0.000359
26.002400 0.000358
26.012300 0.000358
26.022200 0.000358
26.032100 0.000358
26.042000 0.000357
26.051900 0.000357
26.061800 0.000357
26.071700 0.000356
26.081600 0.000356
26.091500 0.000356
26.101400 0.000355
26.111300 0.000355
26.121200 0.000355
26.131100 0.000354
26.141000 0.000354
26.150900 0.000354
26.160800 0.000353
26.170700 0.000353
26.180600 0.000353
26.190500 0.000352
26.200400 0.000352
26.210300 0.000352
26.220200 0.000352
26.230100 0.000351
26.240000 0.000351
26.249900 0.000351
26.259800 0.000350
26.269700 0.000350
26.279600 0.000350
26.289500 0.000349
26.299400 0.000349
26.309300 0.000349
26.319200 0.000348
26.329100 0.000348
26.339000 0.000348
26.348900 0.000347
26.358800 0.000347
26.368700 0.000347
26.378600 0.000347
26.388500 0.000346
26.398400 0.000346
26.408300 0.000346
26.418200 0.000345
26.428100 0.000345
26.438000 0.000345
26.447900 0.000344
26.457800 0.000344
26.467700 0.000344
26.477600 0.000344
26.487500 0.000343
26.497400 0.000343
26.507300 0.000343
26.517200 0.000342
26.527100 0.000342
26.537000 0.000342
26.546900 0.000341
26.556800 0.000341
26.566700 0.000341
26.576600 0.000341
26.586500 0.000340
26.596400 0.000340
26.606300 0.000340
26.616200 0.000339
26.626100 0.000339
26.636000 0.000339
26.645900 0.000338
26.655800 0.000338
26.665700 0.000338
26.675600 0.000338
26.685500 0.000337
26.695400 0.000337
26.705300 0.000337
26.715200 0.000336
26.725100 0.000336
26.735000 0.000336
26.744900 0.000336
26.754800 0.000335
26.764700 0.000335
26.774600 0.000335
26.784500 0.000334
26.794400 0.000334
26.804300 0.000334
26.814200 0.000334
26.824100 0.000333
26.834000 0.000333
26.843900 0.000333
26.853800 0.000332
26.863700 0.000332
26.873600 0.000332
26.883500 0.000332
26.893400 0.000331
26.903300 0.000331
26.913200 0.000331
26.923100 0.000330
26.933000 0.000330
26.942900 0.000330
26.952800 0.000330
26.962700 0.000329
26.972600 0.000329
26.982500 0.000329
26.992400 0.000328
27.002300 0.000328
27.012200 0.000328
27.022100 0.000328
27.032000 0.000327
27.041900 0.000327
27.051800 0.000327
27.061700 0.000326
27.071600 0.000326
27.081500 0.000326
27.091400 0.000326
27.101300 0.000325
27.111200 0.000325
27.121100 0.000325
27.131000 0.000325
27.140900 0.000324
27.150800 0.000324
27.160700 0.000324
27.170600 0.000323
27.180500 0.000323
27.190400 0.000323
27.200300 0.000323
27.210200 0.000322
27.220100 0.000322
27.230000 0.000322
27.239900 0.000322
27.249800 0.000321
27.259700 0.000321
27.269600 0.000321
27.279500 0.000320
27.289400 0.000320
27.299300 0.000320
27.309200 0.000320
27.319100 0.000319
27.329000 0.000319
27.338900 0.000319
27.348800 0.000319
27.358700 0.000318
27.368600 0.000318
27.378500 0.000318
27.388400 0.000318
27.398300 0.000317
27.408200 0.000317
27.418100 0.000317
27.428000 0.000316
27.437900 0.000316
27.447800 0.000316
27.457700 0.000316
27.467600 0.000315
27.477500 0.000315
27.487400 0.000315
27.497300 0.000315
27.507200 0.000314
27.517100 0.000314
27.527000 0.000314
27.536900 0.000314
27.546800 0.000313
27.556700 0.000313
27.566600 0.000313
27.576500 0.000313
27.586400 0.000312
27.596300 0.000312
27.606200 0.000312
27.616100 0.000311
27.626000 0.000311
27.635900 0.000311
27.645800 0.000311
27.655700 0.000310
27.665600 0.000310
27.675500 0.000310
27.685400 0.000310
27.695300 0.000309
27.705200 0.000309
27.715100 0.000309
27.725000 0.000309
27.734900 0.000308
27.744800 0.000308
27.754700 0.000308
27.764600 0.000308
27.774500 0.000307
27.784400 0.000307
27.794300 0.000307
27.804200 0.000307
27.814100 0.000306
27.824000 0.000306
27.833900 0.000306
27.843800 0.000306
27.853700 0.000305
27.863600 0.000305
27.873500 0.000305
27.883400 0.000305
27.893300 0.000304
27.903200 0.000304
27.913100 0.000304
27.923000 0.000304
27.932900 0.000303
27.942800 0.000303
27.952700 0.000303
27.962600 0.000303
27.972500 0.000302
27.982400 0.000302
27.992300 0.000302
28.002200 0.000302
28.012100 0.000301
28.022000 0.000301
28.031900 0.000301
28.041800 0.000301
28.051700 0.000300
28.061600 0.000300
28.071500 0.000300
28.081400 0.000300
28.091300 0.000299
28.101200 0.000299
28.111100 0.000299
28.121000 0.000299
28.130900 0.000299
28.140800 0.000298
28.150700 0.000298
28.160600 0.000298
28.170500 0.000298
28.180400 0.000297
28.190300 0.000297
28.200200 0.000297
28.210100 0.000297
28.220000 0.000296
28.229900 0.000296
28.239800 0.000296
28.249700 0.000296
28.259600 0.000295
28.269500 0.000295
28.279400 0.000295
28.289300 0.000295
28.299200 0.000294
28.309100 0.000294
28.319000 0.000294
28.328900 0.000294
28.338800 0.000294
28.348700 0.000293
28.358600 0.000293
28.368500 0.000293
28.378400 0.000293
28.388300 0.000292
28.398200 0.000292
28.408100 0.000292
28.418000 0.000292
28.427900 0.000291
28.437800 0.000291
28.447700 0.000291
28.457600 0.000291
28.467500 0.000291
28.477400 0.000290
28.487300 0.000290
28.497200 0.000290
28.507100 0.000290
28.517000 0.000289
28.526900 0.000289
28.536800 0.000289
28.546700 0.000289
28.556600 0.000288
28.566500 0.000288
28.576400 0.000288
28.586300 0.000288
28.596200 0.000288
28.606100 0.000287
28.616000 0.000287
28.625900 0.000287
28.635800 0.000287
28.645700 0.000286
28.655600 0.000286
28.665500 0.000286
28.675400 0.000286
28.685300 0.000285
28.695200 0.000285
28.705100 0.000285
28.715000 0.000285
28.724900 0.000285
28.734800 0.000284
28.744700 0.000284
28.754600 0.000284
28.764500 0.000284
28.774400 0.000283
28.784300 0.000283
28.794200 0.000283
28.804100 0.000283
28.814000 0.000283
28.823900 0.000282
28.833800 0.000282
28.843700 0.000282
28.853600 0.000282
28.863500 0.000282
28.873400 0.000281
28.883300 0.000281
28.893200 0.000281
28.903100 0.000281
28.913000 0.000280
28.922900 0.000280
28.932800 0.000280
28.942700 0.000280
28.952600 0.000280
28.962500 0.000279
28.972400 0.000279
28.982300 0.000279
28.992200 0.000279
29.002100 0.000278
29.012000 0.000278
29.021900 0.000278
29.031800 0.000278
29.041700 0.000278
29.051600 0.000277
29.061500 0.000277
29.071400 0.000277
29.081300 0.000277
29.091200 0.000277
29.101100 0.000276
29.111000 0.000276
29.120900 0.000276
29.130800 0.000276
29.140700 0.000275
29.150600 0.000275
29.160500 0.000275
29.170400 0.000275
29.180300 0.000275
29.190200 0.000274
29.200100 0.000274
29.210000 0.000274
29.219900 0.000274
29.229800 0.000274
29.239700 0.000273
29.249600 0.000273
29.259500 0.000273
29.269400 0.000273
29.279300 0.000273
29.289200 0.000272
29.299100 0.000272
29.309000 0.000272
29.318900 0.000272
29.328800 0.000271
29.338700 0.000271
29.348600 0.000271
29.358500 0.000271
29.368400 0.000271
29.378300 0.000270
29.388200 0.000270
29.398100 0.000270
29.408000 0.000270
29.417900 0.000270
29.427800 0.000269
29.437700 0.000269
29.447600 0.000269
29.457500 0.000269
29.467400 0.000269
29.477300 0.000268
29.487200 0.000268
29.497100 0.000268
29.507000 0.000268
29.516900 0.000268
29.526800 0.000267
29.536700 0.000267
29.546600 0.000267
29.556500 0.000267
29.566400 0.000267
29.576300 0.000266
29.586200 0.000266
29.596100 0.000266
29.606000 0.000266
29.615900 0.000266
29.625800 0.000265
29.635700 0.000265
29.645600 0.000265
29.655500 0.000265
29.665400 0.000265
29.675300 0.000264
29.685200 0.000264
29.695100 0.000264
29.705000 0.000264
29.714900 0.000264
29.724800 0.000263
29.734700 0.000263
29.744600 0.000263
29.754500 0.000263
29.764400 0.000263
29.774300 0.000262
29.784200 0.000262
29.794100 0.000262
29.804000 0.000262
29.813900 0.000262
29.823800 0.000261
29.833700 0.000261
29.843600 0.000261
29.853500 0.000261
29.863400 0.000261
29.873300 0.000260
29.883200 0.000260
29.893100 0.000260
29.903000 0.000260
29.912900 0.000260
29.922800 0.000259
29.932700 0.000259
29.942600 0.000259
29.952500 0.000259
29.962400 0.000259
29.972300 0.000258
29.982200 0.000258
29.992100 0.000258
30.002000 0.000258
30.011900 0.000258
30.021800 0.000258
30.031700 0.000257
30.041600 0.000257
30.051500 0.000257
30.061400 0.000257
30.071300 0.000257
30.081200 0.000256
30.091100 0.000256
30.101000 0.000256
30.110900 0.000256
30.120800 0.000256
30.130700 0.000255
30.140600 0.000255
30.150500 0.000255
30.160400 0.000255
30.170300 0.000255
30.180200 0.000255
30.190100 0.000254
30.200000 0.000254
30.209900 0.000254
30.219800 0.000254
30.229700 0.000254
30.239600 0.000253
30.249500 0.000253
30.259400 0.000253
30.269300 0.000253
30.279200 0.000253
30.289100 0.000252
30.299000 0.000252
30.308900 0.000252
30.318800 0.000252
30.328700 0.000252
30.338600 0.000252
30.348500 0.000251
30.358400 0.000251
30.368300 0.000251
30.378200 0.000251
30.388100 0.000251
30.398000 0.000250
30.407900 0.000250
30.417800 0.000250
30.427700 0.000250
30.437600 0.000250
30.447500 0.000250
30.457400 0.000249
30.467300 0.000249
30.477200 0.000249
30.487100 0.000249
30.497000 0.000249
30.506900 0.000248
30.516800 0.000248
30.526700 0.000248
30.536600 0.000248
30.546500 0.000248
30.556400 0.000248
30.566300 0.000247
30.576200 0.000247
30.586100 0.000247
30.596000 0.000247
30.605900 0.000247
30.615800 0.000246
30.625700 0.000246
30.635600 0.000246
30.645500 0.000246
30.655400 0.000246
30.665300 0.000246
30.675200 0.000245
30.685100 0.000245
30.695000 0.000245
30.704900 0.000245
30.714800 0.000245
30.724700 0.000245
30.734600 0.000244
30.744500 0.000244
30.754400 0.000244
30.764300 0.000244
30.774200 0.000244
30.784100 0.000243
30.794000 0.000243
30.803900 0.000243
30.813800 0.000243
30.823700 0.000243
30.833600 0.000243
30.843500 0.000242
30.853400 0.000242
30.863300 0.000242
30.873200 0.000242
30.883100 0.000242
30.893000 0.000242
30.902900 0.000241
30.912800 0.000241
30.922700 0.000241
30.932600 0.000241
30.942500 0.000241
30.952400 0.000241
30.962300 0.000240
30.972200 0.000240
30.982100 0.000240
30.992000 0.000240
31.001900 0.000240
31.011800 0.000239
31.021700 0.000239
31.031600 0.000239
31.041500 0.000239
31.051400 0.000239
31.061300 0.000239
31.071200 0.000238
31.081100 0.000238
31.091000 0.000238
31.100900 0.000238
31.110800 0.000238
31.120700 0.000238
31.130600 0.000237
31.140500 0.000237
31.150400 0.000237
31.160300 0.000237
31.170200 0.000237
31.180100 0.000237
31.190000 0.000236
31.199900 0.000236
31.209800 0.000236
31.219700 0.000236
31.229600 0.000236
31.239500 0.000236
31.249400 0.000235
31.259300 0.000235
31.269200 0.000235
31.279100 0.000235
31.289000 0.000235
31.298900 0.000235
31.308800 0.000234
31.318700 0.000234
31.328600 0.000234
31.338500 0.000234
31.348400 0.000234
31.358300 0.000234
31.368200 0.000233
31.378100 0.000233
31.388000 0.000233
31.397900 0.000233
31.407800 0.000233
31.417700 0.000233
31.427600 0.000232
31.437500 0.000232
31.447400 0.000232
31.457300 0.000232
31.467200 0.000232
31.477100 0.000232
31.487000 0.000232
31.496900 0.000231
31.506800 0.000231
31.516700 0.000231
31.526600 0.000231
31.536500 0.000231
31.546400 0.000231
31.556300 0.000230
31.566200 0.000230
31.576100 0.000230
31.586000 0.000230
31.595900 0.000230
31.605800 0.000230
31.615700 0.000229
31.625600 0.000229
31.635500 0.000229
31.645400 0.000229
31.655300 0.000229
31.665200 0.000229
31.675100 0.000228
31.685000 0.000228
31.694900 0.000228
31.704800 0.000228
31.714700 0.000228
31.724600 0.000228
31.734500 0.000228
31.744400 0.000227
31.754300 0.000227
31.764200 0.000227
31.774100 0.000227
31.784000 0.000227
31.793900 0.000227
31.803800 0.000226
31.813700 0.000226
31.823600 0.000226
31.833500 0.000226
31.843400 0.000226
31.853300 0.000226
31.863200 0.000226
31.873100 0.000225
31.883000 0.000225
31.892900 0.000225
31.902800 0.000225
31.912700 0.000225
31.922600 0.000225
31.932500 0.000224
31.942400 0.000224
31.952300 0.000224
31.962200 0.000224
31.972100 0.000224
31.982000 0.000224
31.991900 0.000224
32.001800 0.000223
32.011700 0.000223
32.021600 0.000223
32.031500 0.000223
32.041400 0.000223
32.051300 0.000223
32.061200 0.000222
32.071100 0.000222
32.081000 0.000222
32.090900 0.000222
32.100800 0.000222
32.110700 0.000222
32.120600 0.000222
32.130500 0.000221
32.140400 0.000221
32.150300 0.000221
32.160200 0.000221
32.170100 0.000221
32.180000 0.000221
32.189900 0.000220
32.199800 0.000220
32.209700 0.000220
32.219600 0.000220
32.229500 0.000220
32.239400 0.000220
32.249300 0.000220
32.259200 0.000219
32.269100 0.000219
32.279000 0.000219
32.288900 0.000219
32.298800 0.000219
32.308700 0.000219
32.318600 0.000219
32.328500 0.000218
32.338400 0.000218
32.348300 0.000218
32.358200 0.000218
32.368100 0.000218
32.378000 0.000218
32.387900 0.000218
32.397800 0.000217
32.407700 0.000217
32.417600 0.000217
32.427500 0.000217
32.437400 0.000217
32.447300 0.000217
32.457200 0.000216
32.467100 0.000216
32.477000 0.000216
32.486900 0.000216
32.496800 0.000216
32.506700 0.000216
32.516600 0.000216
32.526500 0.000215
32.536400 0.000215
32.546300 0.000215
32.556200 0.000215
32.566100 0.000215
32.576000 0.000215
32.585900 0.000215
32.595800 0.000214
32.605700 0.000214
32.615600 0.000214
32.625500 0.000214
32.635400 0.000214
32.645300 0.000214
32.655200 0.000214
32.665100 0.000213
32.675000 0.000213
32.684900 0.000213
32.694800 0.000213
32.704700 0.000213
32.714600 0.000213
32.724500 0.000213
32.734400 0.000212
32.744300 0.000212
32.754200 0.000212
32.764100 0.000212
32.774000 0.000212
32.783900 0.000212
32.793800 0.000212
32.803700 0.000211
32.813600 0.000211
32.823500 0.000211
32.833400 0.000211
32.843300 0.000211
32.853200 0.000211
32.863100 0.000211
32.873000 0.000211
32.882900 0.000210
32.892800 0.000210
32.902700 0.000210
32.912600 0.000210
32.922500 0.000210
32.932400 0.000210
32.942300 0.000210
32.952200 0.000209
32.962100 0.000209
32.972000 0.000209
32.981900 0.000209
32.991800 0.000209
33.001700 0.000209
33.011600 0.000209
33.021500 0.000208
33.031400 0.000208
33.041300 0.000208
33.051200 0.000208
33.061100 0.000208
33.071000 0.000208
33.080900 0.000208
33.090800 0.000207
33.100700 0.000207
33.110600 0.000207
33.120500 0.000207
33.130400 0.000207
33.140300 0.000207
33.150200 0.000207
33.160100 0.000207
33.170000 0.000206
33.179900 0.000206
33.189800 0.000206
33.199700 0.000206
33.209600 0.000206
33.219500 0.000206
33.229400 0.000206
33.239300 0.000205
33.249200 0.000205
33.259100 0.000205
33.269000 0.000205
33.278900 0.000205
33.288800 0.000205
33.298700 0.000205
33.308600 0.000205
33.318500 0.000204
33.328400 0.000204
33.338300 0.000204
33.348200 0.000204
33.358100 0.000204
33.368000 0.000204
33.377900 0.000204
33.387800 0.000203
33.397700 0.000203
33.407600 0.000203
33.417500 0.000203
33.427400 0.000203
33.437300 0.000203
33.447200 0.000203
33.457100 0.000203
33.467000 0.000202
33.476900 0.000202
33.486800 0.000202
33.496700 0.000202
33.506600 0.000202
33.516500 0.000202
33.526400 0.000202
33.536300 0.000201
33.546200 0.000201
33.556100 0.000201
33.566000 0.000201
33.575900 0.000201
33.585800 0.000201
33.595700 0.000201
33.605600 0.000201
33.615500 0.000200
33.625400 0.000200
33.635300 0.000200
33.645200 0.000200
33.655100 0.000200
33.665000 0.000200
33.674900 0.000200
33.684800 0.000200
33.694700 0.000199
33.704600 0.000199
33.714500 0.000199
33.724400 0.000199
33.734300 0.000199
33.744200 0.000199
33.754100 0.000199
33.764000 0.000199
33.773900 0.000198
33.783800 0.000198
33.793700 0.000198
33.803600 0.000198
33.813500 0.000198
33.823400 0.000198
33.833300 0.000198
33.843200 0.000197
33.853100 0.000197
33.863000 0.000197
33.872900 0.000197
33.882800 0.000197
33.892700 0.000197
33.902600 0.000197
33.912500 0.000197
33.922400 0.000196
33.932300 0.000196
33.942200 0.000196
33.952100 0.000196
33.962000 0.000196
33.971900 0.000196
33.981800 0.000196
33.991700 0.000196
34.001600 0.000195
34.011500 0.000195
34.021400 0.000195
34.031300 0.000195
34.041200 0.000195
34.051100 0.000195
34.061000 0.000195
34.070900 0.000195
34.080800 0.000195
34.090700 0.000194
34.100600 0.000194
34.110500 0.000194
34.120400 0.000194
34.130300 0.000194
34.140200 0.000194
34.150100 0.000194
34.160000 0.000194
34.169900 0.000193
34.179800 0.000193
34.189700 0.000193
34.199600 0.000193
34.209500 0.000193
34.219400 0.000193
34.229300 0.000193
34.239200 0.000193
34.249100 0.000192
34.259000 0.000192
34.268900 0.000192
34.278800 0.000192
34.288700 0.000192
34.298600 0.000192
34.308500 0.000192
34.318400 0.000192
34.328300 0.000191
34.338200 0.000191
34.348100 0.000191
34.358000 0.000191
34.367900 0.000191
34.377800 0.000191
34.387700 0.000191
34.397600 0.000191
34.407500 0.000190
34.417400 0.000190
34.427300 0.000190
34.437200 0.000190
34.447100 0.000190
34.457000 0.000190
34.466900 0.000190
34.476800 0.000190
34.486700 0.000190
34.496600 0.000189
34.506500 0.000189
34.516400 0.000189
34.526300 0.000189
34.536200 0.000189
34.546100 0.000189
34.556000 0.000189
34.565900 0.000189
34.575800 0.000188
34.585700 0.000188
34.595600 0.000188
34.605500 0.000188
34.615400 0.000188
34.625300 0.000188
34.635200 0.000188
34.645100 0.000188
34.655000 0.000188
34.664900 0.000187
34.674800 0.000187
34.684700 0.000187
34.694600 0.000187
34.704500 0.000187
34.714400 0.000187
34.724300 0.000187
34.734200 0.000187
34.744100 0.000187
34.754000 0.000186
34.763900 0.000186
34.773800 0.000186
34.783700 0.000186
34.793600 0.000186
34.803500 0.000186
34.813400 0.000186
34.823300 0.000186
34.833200 0.000185
34.843100 0.000185
34.853000 0.000185
34.862900 0.000185
34.872800 0.000185
34.882700 0.000185
34.892600 0.000185
34.902500 0.000185
34.912400 0.000185
34.922300 0.000184
34.932200 0.000184
34.942100 0.000184
34.952000 0.000184
34.961900 0.000184
34.971800 0.000184
34.981700 0.000184
34.991600 0.000184
35.001500 0.000184
35.011400 0.000183
35.021300 0.000183
35.031200 0.000183
35.041100 0.000183
35.051000 0.000183
35.060900 0.000183
35.070800 0.000183
35.080700 0.000183
35.090600 0.000183
35.100500 0.000182
35.110400 0.000182
35.120300 0.000182
35.130200 0.000182
35.140100 0.000182
35.150000 0.000182
35.159900 0.000182
35.169800 0.000182
35.179700 0.000182
35.189600 0.000181
35.199500 0.000181
35.209400 0.000181
35.219300 0.000181
35.229200 0.000181
35.239100 0.000181
35.249000 0.000181
35.258900 0.000181
35.268800 0.000181
35.278700 0.000180
35.288600 0.000180
35.298500 0.000180
35.308400 0.000180
35.318300 0.000180
35.328200 0.000180
35.338100 0.000180
35.348000 0.000180
35.357900 0.000180
35.367800 0.000179
35.377700 0.000179
35.387600 0.000179
35.397500 0.000179
35.407400 0.000179
35.417300 0.000179
35.427200 0.000179
35.437100 0.000179
35.447000 0.000179
35.456900 0.000178
35.466800 0.000178
35.476700 0.000178
35.486600 0.000178
35.496500 0.000178
35.506400 0.000178
35.516300 0.000178
35.526200 0.000178
35.536100 0.000178
35.546000 0.000177
35.555900 0.000177
35.565800 0.000177
35.575700 0.000177
35.585600 0.000177
35.595500 0.000177
35.605400 0.000177
35.615300 0.000177
35.625200 0.000177
35.635100 0.000177
35.645000 0.000176
35.654900 0.000176
35.664800 0.000176
35.674700 0.000176
35.684600 0.000176
35.694500 0.000176
35.704400 0.000176
35.714300 0.000176
35.724200 0.000176
35.734100 0.000175
35.744000 0.000175
35.753900 0.000175
35.763800 0.000175
35.773700 0.000175
35.783600 0.000175
35.793500 0.000175
35.803400 0.000175
35.813300 0.000175
35.823200 0.000175
35.833100 0.000174
35.843000 0.000174
35.852900 0.000174
35.862800 0.000174
35.872700 0.000174
35.882600 0.000174
35.892500 0.000174
35.902400 0.000174
35.912300 0.000174
35.922200 0.000173
35.932100 0.000173
35.942000 0.000173
35.951900 0.000173
35.961800 0.000173
35.971700 0.000173
35.981600 0.000173
35.991500 0.000173
36.001400 0.000173
36.011300 0.000173
36.021200 0.000172
36.031100 0.000172
36.041000 0.000172
36.050900 0.000172
36.060800 0.000172
36.070700 0.000172
36.080600 0.000172
36.090500 0.000172
36.100400 0.000172
36.110300 0.000172
36.120200 0.000171
36.130100 0.000171
36.140000 0.000171
36.149900 0.000171
36.159800 0.000171
36.169700 0.000171
36.179600 0.000171
36.189500 0.000171
36.199400 0.000171
36.209300 0.000171
36.219200 0.000170
36.229100 0.000170
36.239000 0.000170
36.248900 0.000170
36.258800 0.000170
36.268700 0.000170
36.278600 0.000170
36.288500 0.000170
36.298400 0.000170
36.308300 0.000170
36.318200 0.000169
36.328100 0.000169
36.338000 0.000169
36.347900 0.000169
36.357800 0.000169
36.367700 0.000169
36.377600 0.000169
36.387500 0.000169
36.397400 0.000169
36.407300 0.000169
36.417200 0.000168
36.427100 0.000168
36.437000 0.000168
36.446900 0.000168
36.456800 0.000168
36.466700 0.000168
36.476600 0.000168
36.486500 0.000168
36.496400 0.000168
36.506300 0.000168
36.516200 0.000167
36.526100 0.000167
36.536000 0.000167
36.545900 0.000167
36.555800 0.000167
36.565700 0.000167
36.575600 0.000167
36.585500 0.000167
36.595400 0.000167
36.605300 0.000167
36.615200 0.000166
36.625100 0.000166
36.635000 0.000166
36.644900 0.000166
36.654800 0.000166
36.664700 0.000166
36.674600 0.000166
36.684500 0.000166
36.694400 0.000166
36.704300 0.000166
36.714200 0.000166
36.724100 0.000165
36.734000 0.000165
36.743900 0.000165
36.753800 0.000165
36.763700 0.000165
36.773600 0.000165
36.783500 0.000165
36.793400 0.000165
36.803300 0.000165
36.813200 0.000165
36.823100 0.000164
36.833000 0.000164
36.842900 0.000164
36.852800 0.000164
36.862700 0.000164
36.872600 0.000164
36.882500 0.000164
36.892400 0.000164
36.902300 0.000164
36.912200 0.000164
36.922100 0.000164
36.932000 0.000163
36.941900 0.000163
36.951800 0.000163
36.961700 0.000163
36.971600 0.000163
36.981500 0.000163
36.991400 0.000163
37.001300 0.000163
37.011200 0.000163
37.021100 0.000163
37.031000 0.000162
37.040900 0.000162
37.050800 0.000162
37.060700 0.000162
37.070600 0.000162
37.080500 0.000162
37.090400 0.000162
37.100300 0.000162
37.110200 0.000162
37.120100 0.000162
37.130000 0.000162
37.139900 0.000161
37.149800 0.000161
37.159700 0.000161
37.169600 0.000161
37.179500 0.000161
37.189400 0.000161
37.199300 0.000161
37.209200 0.000161
37.219100 0.000161
37.229000 0.000161
37.238900 0.000161
37.248800 0.000160
37.258700 0.000160
37.268600 0.000160
37.278500 0.000160
37.288400 0.000160
37.298300 0.000160
37.308200 0.000160
37.318100 0.000160
37.328000 0.000160
37.337900 0.000160
37.347800 0.000160
37.357700 0.000159
37.367600 0.000159
37.377500 0.000159
37.387400 0.000159
37.397300 0.000159
37.407200 0.000159
37.417100 0.000159
37.427000 0.000159
37.436900 0.000159
37.446800 0.000159
37.456700 0.000159
37.466600 0.000158
37.476500 0.000158
37.486400 0.000158
37.496300 0.000158
37.506200 0.000158
37.516100 0.000158
37.526000 0.000158
37.535900 0.000158
37.545800 0.000158
37.555700 0.000158
37.565600 0.000158
37.575500 0.000157
37.585400 0.000157
37.595300 0.000157
37.605200 0.000157
37.615100 0.000157
37.625000 0.000157
37.634900 0.000157
37.644800 0.000157
37.654700 0.000157
37.664600 0.000157
37.674500 0.000157
37.684400 0.000156
37.694300 0.000156
37.704200 0.000156
37.714100 0.000156
37.724000 0.000156
37.733900 0.000156
37.743800 0.000156
37.753700 0.000156
37.763600 0.000156
37.773500 0.000156
37.783400 0.000156
37.793300 0.000156
37.803200 0.000155
37.813100 0.000155
37.823000 0.000155
37.832900 0.000155
37.842800 0.000155
37.852700 0.000155
37.862600 0.000155
37.872500 0.000155
37.882400 0.000155
37.892300 0.000155
37.902200 0.000155
37.912100 0.000154
37.922000 0.000154
37.931900 0.000154
37.941800 0.000154
37.951700 0.000154
37.961600 0.000154
37.971500 0.000154
37.981400 0.000154
37.991300 0.000154
38.001200 0.000154
38.011100 0.000154
38.021000 0.000154
38.030900 0.000153
38.040800 0.000153
38.050700 0.000153
38.060600 0.000153
38.070500 0.000153
38.080400 0.000153
38.090300 0.000153
38.100200 0.000153
38.110100 0.000153
38.120000 0.000153
38.129900 0.000153
38.139800 0.000153
38.149700 0.000152
38.159600 0.000152
38.169500 0.000152
38.179400 0.000152
38.189300 0.000152
38.199200 0.000152
38.209100 0.000152
38.219000 0.000152
38.228900 0.000152
38.238800 0.000152
38.248700 0.000152
38.258600 0.000152
38.268500 0.000151
38.278400 0.000151
38.288300 0.000151
38.298200 0.000151
38.308100 0.000151
38.318000 0.000151
38.327900 0.000151
38.337800 0.000151
38.347700 0.000151
38.357600 0.000151
38.367500 0.000151
38.377400 0.000151
38.387300 0.000150
38.397200 0.000150
38.407100 0.000150
38.417000 0.000150
38.426900 0.000150
38.436800 0.000150
38.446700 0.000150
38.456600 0.000150
38.466500 0.000150
38.476400 0.000150
38.486300 0.000150
38.496200 0.000150
38.506100 0.000149
38.516000 0.000149
38.525900 0.000149
38.535800 0.000149
38.545700 0.000149
38.555600 0.000149
38.565500 0.000149
38.575400 0.000149
38.585300 0.000149
38.595200 0.000149
38.605100 0.000149
38.615000 0.000149
38.624900 0.000148
38.634800 0.000148
38.644700 0.000148
38.654600 0.000148
38.664500 0.000148
38.674400 0.000148
38.684300 0.000148
38.694200 0.000148
38.704100 0.000148
38.714000 0.000148
38.723900 0.000148
38.733800 0.000148
38.743700 0.000147
38.753600 0.000147
38.763500 0.000147
38.773400 0.000147
38.783300 0.000147
38.793200 0.000147
38.803100 0.000147
38.813000 0.000147
38.822900 0.000147
38.832800 0.000147
38.842700 0.000147
38.852600 0.000147
38.862500 0.000147
38.872400 0.000146
38.882300 0.000146
38.892200 0.000146
38.902100 0.000146
38.912000 0.000146
38.921900 0.000146
38.931800 0.000146
38.941700 0.000146
38.951600 0.000146
38.961500 0.000146
38.971400 0.000146
38.981300 0.000146
38.991200 0.000145
39.001100 0.000145
39.011000 0.000145
39.020900 0.000145
39.030800 0.000145
39.040700 0.000145
39.050600 0.000145
39.060500 0.000145
39.070400 0.000145
39.080300 0.000145
39.090200 0.000145
39.100100 0.000145
39.110000 0.000145
39.119900 0.000144
39.129800 0.000144
39.139700 0.000144
39.149600 0.000144
39.159500 0.000144
39.169400 0.000144
39.179300 0.000144
39.189200 0.000144
39.199100 0.000144
39.209000 0.000144
39.218900 0.000144
39.228800 0.000144
39.238700 0.000144
39.248600 0.000143
39.258500 0.000143
39.268400 0.000143
39.278300 0.000143
39.288200 0.000143
39.298100 0.000143
39.308000 0.000143
39.317900 0.000143
39.327800 0.000143
39.337700 0.000143
39.347600 0.000143
39.357500 0.000143
39.367400 0.000143
39.377300 0.000142
39.387200 0.000142
39.397100 0.000142
39.407000 0.000142
39.416900 0.000142
39.426800 0.000142
39.436700 0.000142
39.446600 0.000142
39.456500 0.000142
39.466400 0.000142
39.476300 0.000142
39.486200 0.000142
39.496100 0.000142
39.506000 0.000141
39.515900 0.000141
39.525800 0.000141
39.535700 0.000141
39.545600 0.000141
39.555500 0.000141
39.565400 0.000141
39.575300 0.000141
39.585200 0.000141
39.595100 0.000141
39.605000 0.000141
39.614900 0.000141
39.624800 0.000141
39.634700 0.000141
39.644600 0.000140
39.654500 0.000140
39.664400 0.000140
39.674300 0.000140
39.684200 0.000140
39.694100 0.000140
39.704000 0.000140
39.713900 0.000140
39.723800 0.000140
39.733700 0.000140
39.743600 0.000140
39.753500 0.000140
39.763400 0.000140
39.773300 0.000139
39.783200 0.000139
39.793100 0.000139
39.803000 0.000139
39.812900 0.000139
39.822800 0.000139
39.832700 0.000139
39.842600 0.000139
39.852500 0.000139
39.862400 0.000139
39.872300 0.000139
39.882200 0.000139
39.892100 0.000139
39.902000 0.000139
39.911900 0.000138
39.921800 0.000138
39.931700 0.000138
39.941600 0.000138
39.951500 0.000138
39.961400 0.000138
39.971300 0.000138
39.981200 0.000138
39.991100 0.000138
40.001000 0.000138
40.010900 0.000138
40.020800 0.000138
40.030700 0.000138
40.040600 0.000137
40.050500 0.000137
40.060400 0.000137
40.070300 0.000137
40.080200 0.000137
40.090100 0.000137
40.100000 0.000137
40.109900 0.000137
40.119800 0.000137
40.129700 0.000137
40.139600 0.000137
40.149500 0.000137
40.159400 0.000137
40.169300 0.000137
40.179200 0.000136
40.189100 0.000136
40.199000 0.000136
40.208900 0.000136
40.218800 0.000136
40.228700 0.000136
40.238600 0.000136
40.248500 0.000136
40.258400 0.000136
40.268300 0.000136
40.278200 0.000136
40.288100 0.000136
40.298000 0.000136
40.307900 0.000136
40.317800 0.000135
40.327700 0.000135
40.337600 0.000135
40.347500 0.000135
40.357400 0.000135
40.367300 0.000135
40.377200 0.000135
40.387100 0.000135
40.397000 0.000135
40.406900 0.000135
40.416800 0.000135
40.426700 0.000135
40.436600 0.000135
40.446500 0.000135
40.456400 0.000135
40.466300 0.000134
40.476200 0.000134
40.486100 0.000134
40.496000 0.000134
40.505900 0.000134
40.515800 0.000134
40.525700 0.000134
40.535600 0.000134
40.545500 0.000134
40.555400 0.000134
40.565300 0.000134
40.575200 0.000134
40.585100 0.000134
40.595000 0.000134
40.604900 0.000133
40.614800 0.000133
40.624700 0.000133
40.634600 0.000133
40.644500 0.000133
40.654400 0.000133
40.664300 0.000133
40.674200 0.000133
40.684100 0.000133
40.694000 0.000133
40.703900 0.000133
40.713800 0.000133
40.723700 0.000133
40.733600 0.000133
40.743500 0.000132
40.753400 0.000132
40.763300 0.000132
40.773200 0.000132
40.783100 0.000132
40.793000 0.000132
40.802900 0.000132
40.812800 0.000132
40.822700 0.000132
40.832600 0.000132
40.842500 0.000132
40.852400 0.000132
40.862300 0.000132
40.872200 0.000132
40.882100 0.000132
40.892000 0.000131
40.901900 0.000131
40.911800 0.000131
40.921700 0.000131
40.931600 0.000131
40.941500 0.000131
40.951400 0.000131
40.961300 0.000131
40.971200 0.000131
40.981100 0.000131
40.991000 0.000131
41.000900 0.000131
41.010800 0.000131
41.020700 0.000131
41.030600 0.000131
41.040500 0.000130
41.050400 0.000130
41.060300 0.000130
41.070200 0.000130
41.080100 0.000130
41.090000 0.000130
41.099900 0.000130
41.109800 0.000130
41.119700 0.000130
41.129600 0.000130
41.139500 0.000130
41.149400 0.000130
41.159300 0.000130
41.169200 0.000130
41.179100 0.000130
41.189000 0.000129
41.198900 0.000129
41.208800 0.000129
41.218700 0.000129
41.228600 0.000129
41.238500 0.000129
41.248400 0.000129
41.258300 0.000129
41.268200 0.000129
41.278100 0.000129
41.288000 0.000129
41.297900 0.000129
41.307800 0.000129
41.317700 0.000129
41.327600 0.000129
41.337500 0.000128
41.347400 0.000128
41.357300 0.000128
41.367200 0.000128
41.377100 0.000128
41.387000 0.000128
41.396900 0.000128
41.406800 0.000128
41.416700 0.000128
41.426600 0.000128
41.436500 0.000128
41.446400 0.000128
41.456300 0.000128
41.466200 0.000128
41.476100 0.000128
41.486000 0.000128
41.495900 0.000127
41.505800 0.000127
41.515700 0.000127
41.525600 0.000127
41.535500 0.000127
41.545400 0.000127
41.555300 0.000127
41.565200 0.000127
41.575100 0.000127
41.585000 0.000127
41.594900 0.000127
41.604800 0.000127
41.614700 0.000127
41.624600 0.000127
41.634500 0.000127
41.644400 0.000127
41.654300 0.000126
41.664200 0.000126
41.674100 0.000126
41.684000 0.000126
41.693900 0.000126
41.703800 0.000126
41.713700 0.000126
41.723600 0.000126
41.733500 0.000126
41.743400 0.000126
41.753300 0.000126
41.763200 0.000126
41.773100 0.000126
41.783000 0.000126
41.792900 0.000126
41.802800 0.000125
41.812700 0.000125
41.822600 0.000125
41.832500 0.000125
41.842400 0.000125
41.852300 0.000125
41.862200 0.000125
41.872100 0.000125
41.882000 0.000125
41.891900 0.000125
41.901800 0.000125
41.911700 0.000125
41.921600 0.000125
41.931500 0.000125
41.941400 0.000125
41.951300 0.000125
41.961200 0.000124
41.971100 0.000124
41.981000 0.000124
41.990900 0.000124
42.000800 0.000124
42.010700 0.000124
42.020600 0.000124
42.030500 0.000124
42.040400 0.000124
42.050300 0.000124
42.060200 0.000124
42.070100 0.000124
42.080000 0.000124
42.089900 0.000124
42.099800 0.000124
42.109700 0.000124
42.119600 0.000124
42.129500 0.000123
42.139400 0.000123
42.149300 0.000123
42.159200 0.000123
42.169100 0.000123
42.179000 0.000123
42.188900 0.000123
42.198800 0.000123
42.208700 0.000123
42.218600 0.000123
42.228500 0.000123
42.238400 0.000123
42.248300 0.000123
42.258200 0.000123
42.268100 0.000123
42.278000 0.000123
42.287900 0.000122
42.297800 0.000122
42.307700 0.000122
42.317600 0.000122
42.327500 0.000122
42.337400 0.000122
42.347300 0.000122
42.357200 0.000122
42.367100 0.000122
42.377000 0.000122
42.386900 0.000122
42.396800 0.000122
42.406700 0.000122
42.416600 0.000122
42.426500 0.000122
42.436400 0.000122
42.446300 0.000122
42.456200 0.000121
42.466100 0.000121
42.476000 0.000121
42.485900 0.000121
42.495800 0.000121
42.505700 0.000121
42.515600 0.000121
42.525500 0.000121
42.535400 0.000121
42.545300 0.000121
42.555200 0.000121
42.565100 0.000121
42.575000 0.000121
42.584900 0.000121
42.594800 0.000121
42.604700 0.000121
42.614600 0.000120
42.624500 0.000120
42.634400 0.000120
42.644300 0.000120
42.654200 0.000120
42.664100 0.000120
42.674000 0.000120
42.683900 0.000120
42.693800 0.000120
42.703700 0.000120
42.713600 0.000120
42.723500 0.000120
42.733400 0.000120
42.743300 0.000120
42.753200 0.000120
42.763100 0.000120
42.773000 0.000120
42.782900 0.000119
42.792800 0.000119
42.802700 0.000119
42.812600 0.000119
42.822500 0.000119
42.832400 0.000119
42.842300 0.000119
42.852200 0.000119
42.862100 0.000119
42.872000 0.000119
42.881900 0.000119
42.891800 0.000119
42.901700 0.000119
42.911600 0.000119
42.921500 0.000119
42.931400 0.000119
42.941300 0.000119
42.951200 0.000119
42.961100 0.000118
42.971000 0.000118
42.980900 0.000118
42.990800 0.000118
43.000700 0.000118
43.010600 0.000118
43.020500 0.000118
43.030400 0.000118
43.040300 0.000118
43.050200 0.000118
43.060100 0.000118
43.070000 0.000118
43.079900 0.000118
43.089800 0.000118
43.099700 0.000118
43.109600 0.000118
43.119500 0.000118
43.129400 0.000117
43.139300 0.000117
43.149200 0.000117
43.159100 0.000117
43.169000 0.000117
43.178900 0.000117
43.188800 0.000117
43.198700 0.000117
43.208600 0.000117
43.218500 0.000117
43.228400 0.000117
43.238300 0.000117
43.248200 0.000117
43.258100 0.000117
43.268000 0.000117
43.277900 0.000117
43.287800 0.000117
43.297700 0.000117
43.307600 0.000116
43.317500 0.000116
43.327400 0.000116
43.337300 0.000116
43.347200 0.000116
43.357100 0.000116
43.367000 0.000116
43.376900 0.000116
43.386800 0.000116
43.396700 0.000116
43.406600 0.000116
43.416500 0.000116
43.426400 0.000116
43.436300 0.000116
43.446200 0.000116
43.456100 0.000116
43.466000 0.000116
43.475900 0.000116
43.485800 0.000115
43.495700 0.000115
43.505600 0.000115
43.515500 0.000115
43.525400 0.000115
43.535300 0.000115
43.545200 0.000115
43.555100 0.000115
43.565000 0.000115
43.574900 0.000115
43.584800 0.000115
43.594700 0.000115
43.604600 0.000115
43.614500 0.000115
43.624400 0.000115
43.634300 0.000115
43.644200 0.000115
43.654100 0.000115
43.664000 0.000114
43.673900 0.000114
43.683800 0.000114
43.693700 0.000114
43.703600 0.000114
43.713500 0.000114
43.723400 0.000114
43.733300 0.000114
43.743200 0.000114
43.753100 0.000114
43.763000 0.000114
43.772900 0.000114
43.782800 0.000114
43.792700 0.000114
43.802600 0.000114
43.812500 0.000114
43.822400 0.000114
43.832300 0.000114
43.842200 0.000113
43.852100 0.000113
43.862000 0.000113
43.871900 0.000113
43.881800 0.000113
43.891700 0.000113
43.901600 0.000113
43.911500 0.000113
43.921400 0.000113
43.931300 0.000113
43.941200 0.000113
43.951100 0.000113
43.961000 0.000113
43.970900 0.000113
43.980800 0.000113
43.990700 0.000113
44.000600 0.000113
44.010500 0.000113
44.020400 0.000113
44.030300 0.000112
44.040200 0.000112
44.050100 0.000112
44.060000 0.000112
44.069900 0.000112
44.079800 0.000112
44.089700 0.000112
44.099600 0.000112
44.109500 0.000112
44.119400 0.000112
44.129300 0.000112
44.139200 0.000112
44.149100 0.000112
44.159000 0.000112
44.168900 0.000112
44.178800 0.000112
44.188700 0.000112
44.198600 0.000112
44.208500 0.000112
44.218400 0.000111
44.228300 0.000111
44.238200 0.000111
44.248100 0.000111
44.258000 0.000111
44.267900 0.000111
44.277800 0.000111
44.287700 0.000111
44.297600 0.000111
44.307500 0.000111
44.317400 0.000111
44.327300 0.000111
44.337200 0.000111
44.347100 0.000111
44.357000 0.000111
44.366900 0.000111
44.376800 0.000111
44.386700 0.000111
44.396600 0.000111
44.406500 0.000110
44.416400 0.000110
44.426300 0.000110
44.436200 0.000110
44.446100 0.000110
44.456000 0.000110
44.465900 0.000110
44.475800 0.000110
44.485700 0.000110
44.495600 0.000110
44.505500 0.000110
44.515400 0.000110
44.525300 0.000110
44.535200 0.000110
44.545100 0.000110
44.555000 0.000110
44.564900 0.000110
44.574800 0.000110
44.584700 0.000110
44.594600 0.000110
44.604500 0.000109
44.614400 0.000109
44.624300 0.000109
44.634200 0.000109
44.644100 0.000109
44.654000 0.000109
44.663900 0.000109
44.673800 0.000109
44.683700 0.000109
44.693600 0.000109
44.703500 0.000109
44.713400 0.000109
44.723300 0.000109
44.733200 0.000109
44.743100 0.000109
44.753000 0.000109
44.762900 0.000109
44.772800 0.000109
44.782700 0.000109
44.792600 0.000108
44.802500 0.000108
44.812400 0.000108
44.822300 0.000108
44.832200 0.000108
44.842100 0.000108
44.852000 0.000108
44.861900 0.000108
44.871800 0.000108
44.881700 0.000108
44.891600 0.000108
44.901500 0.000108
44.911400 0.000108
44.921300 0.000108
44.931200 0.000108
44.941100 0.000108
44.951000 0.000108
44.960900 0.000108
44.970800 0.000108
44.980700 0.000108
44.990600 0.000107
45.000500 0.000107
45.010400 0.000107
45.020300 0.000107
45.030200 0.000107
45.040100 0.000107
45.050000 0.000107
45.059900 0.000107
45.069800 0.000107
45.079700 0.000107
45.089600 0.000107
45.099500 0.000107
45.109400 0.000107
45.119300 0.000107
45.129200 0.000107
45.139100 0.000107
45.149000 0.000107
45.158900 0.000107
45.168800 0.000107
45.178700 0.000107
45.188600 0.000107
45.198500 0.000106
45.208400 0.000106
45.218300 0.000106
45.228200 0.000106
45.238100 0.000106
45.248000 0.000106
45.257900 0.000106
45.267800 0.000106
45.277700 0.000106
45.287600 0.000106
45.297500 0.000106
45.307400 0.000106
45.317300 0.000106
45.327200 0.000106
45.337100 0.000106
45.347000 0.000106
45.356900 0.000106
45.366800 0.000106
45.376700 0.000106
45.386600 0.000106
45.396500 0.000105
45.406400 0.000105
45.416300 0.000105
45.426200 0.000105
45.436100 0.000105
45.446000 0.000105
45.455900 0.000105
45.465800 0.000105
45.475700 0.000105
45.485600 0.000105
45.495500 0.000105
45.505400 0.000105
45.515300 0.000105
45.525200 0.000105
45.535100 0.000105
45.545000 0.000105
45.554900 0.000105
45.564800 0.000105
45.574700 0.000105
45.584600 0.000105
45.594500 0.000105
45.604400 0.000104
45.614300 0.000104
45.624200 0.000104
45.634100 0.000104
45.644000 0.000104
45.653900 0.000104
45.663800 0.000104
45.673700 0.000104
45.683600 0.000104
45.693500 0.000104
45.703400 0.000104
45.713300 0.000104
45.723200 0.000104
45.733100 0.000104
45.743000 0.000104
45.752900 0.000104
45.762800 0.000104
45.772700 0.000104
45.782600 0.000104
45.792500 0.000104
45.802400 0.000104
45.812300 0.000103
45.822200 0.000103
45.832100 0.000103
45.842000 0.000103
45.851900 0.000103
45.861800 0.000103
45.871700 0.000103
45.881600 0.000103
45.891500 0.000103
45.901400 0.000103
45.911300 0.000103
45.921200 0.000103
45.931100 0.000103
45.941000 0.000103
45.950900 0.000103
45.960800 0.000103
45.970700 0.000103
45.980600 0.000103
45.990500 0.000103
46.000400 0.000103
46.010300 0.000103
46.020200 0.000103
46.030100 0.000102
46.040000 0.000102
46.049900 0.000102
46.059800 0.000102
46.069700 0.000102
46.079600 0.000102
46.089500 0.000102
46.099400 0.000102
46.109300 0.000102
46.119200 0.000102
46.129100 0.000102
46.139000 0.000102
46.148900 0.000102
46.158800 0.000102
46.168700 0.000102
46.178600 0.000102
46.188500 0.000102
46.198400 0.000102
46.208300 0.000102
46.218200 0.000102
46.228100 0.000102
46.238000 0.000102
46.247900 0.000101
46.257800 0.000101
46.267700 0.000101
46.277600 0.000101
46.287500 0.000101
46.297400 0.000101
46.307300 0.000101
46.317200 0.000101
46.327100 0.000101
46.337000 0.000101
46.346900 0.000101
46.356800 0.000101
46.366700 0.000101
46.376600 0.000101
46.386500 0.000101
46.396400 0.000101
46.406300 0.000101
46.416200 0.000101
46.426100 0.000101
46.436000 0.000101
46.445900 0.000101
46.455800 0.000101
46.465700 0.000100
46.475600 0.000100
46.485500 0.000100
46.495400 0.000100
46.505300 0.000100
46.515200 0.000100
46.525100 0.000100
46.535000 0.000100
46.544900 0.000100
46.554800 0.000100
46.564700 0.000100
46.574600 0.000100
46.584500 0.000100
46.594400 0.000100
46.604300 0.000100
46.614200 0.000100
46.624100 0.000100
46.634000 0.000100
46.643900 0.000100
46.653800 0.000100
46.663700 0.000100
46.673600 0.000100
46.683500 0.000099
46.693400 0.000099
46.703300 0.000099
46.713200 0.000099
46.723100 0.000099
46.733000 0.000099
46.742900 0.000099
46.752800 0.000099
46.762700 0.000099
46.772600 0.000099
46.782500 0.000099
46.792400 0.000099
46.802300 0.000099
46.812200 0.000099
46.822100 0.000099
46.832000 0.000099
46.841900 0.000099
46.851800 0.000099
46.861700 0.000099
46.871600 0.000099
46.881500 0.000099
46.891400 0.000099
46.901300 0.000099
46.911200 0.000098
46.921100 0.000098
46.931000 0.000098
46.940900 0.000098
46.950800 0.000098
46.960700 0.000098
46.970600 0.000098
46.980500 0.000098
46.990400 0.000098
47.000300 0.000098
47.010200 0.000098
47.020100 0.000098
47.030000 0.000098
47.039900 0.000098
47.049800 0.000098
47.059700 0.000098
47.069600 0.000098
47.079500 0.000098
47.089400 0.000098
47.099300 0.000098
47.109200 0.000098
47.119100 0.000098
47.129000 0.000098
47.138900 0.000097
47.148800 0.000097
47.158700 0.000097
47.168600 0.000097
47.178500 0.000097
47.188400 0.000097
47.198300 0.000097
47.208200 0.000097
47.218100 0.000097
47.228000 0.000097
47.237900 0.000097
47.247800 0.000097
47.257700 0.000097
47.267600 0.000097
47.277500 0.000097
47.287400 0.000097
47.297300 0.000097
47.307200 0.000097
47.317100 0.000097
47.327000 0.000097
47.336900 0.000097
47.346800 0.000097
47.356700 0.000097
47.366600 0.000097
47.376500 0.000096
47.386400 0.000096
47.396300 0.000096
47.406200 0.000096
47.416100 0.000096
47.426000 0.000096
47.435900 0.000096
47.445800 0.000096
47.455700 0.000096
47.465600 0.000096
47.475500 0.000096
47.485400 0.000096
47.495300 0.000096
47.505200 0.000096
47.515100 0.000096
47.525000 0.000096
47.534900 0.000096
47.544800 0.000096
47.554700 0.000096
47.564600 0.000096
47.574500 0.000096
47.584400 0.000096
47.594300 0.000096
47.604200 0.000096
47.614100 0.000095
47.624000 0.000095
47.633900 0.000095
47.643800 0.000095
47.653700 0.000095
47.663600 0.000095
47.673500 0.000095
47.683400 0.000095
47.693300 0.000095
47.703200 0.000095
47.713100 0.000095
47.723000 0.000095
47.732900 0.000095
47.742800 0.000095
47.752700 0.000095
47.762600 0.000095
47.772500 0.000095
47.782400 0.000095
47.792300 0.000095
47.802200 0.000095
47.812100 0.000095
47.822000 0.000095
47.831900 0.000095
47.841800 0.000095
47.851700 0.000094
47.861600 0.000094
47.871500 0.000094
47.881400 0.000094
47.891300 0.000094
47.901200 0.000094
47.911100 0.000094
47.921000 0.000094
47.930900 0.000094
47.940800 0.000094
47.950700 0.000094
47.960600 0.000094
47.970500 0.000094
47.980400 0.000094
47.990300 0.000094
48.000200 0.000094
48.010100 0.000094
48.020000 0.000094
48.029900 0.000094
48.039800 0.000094
48.049700 0.000094
48.059600 0.000094
48.069500 0.000094
48.079400 0.000094
48.089300 0.000094
48.099200 0.000093
48.109100 0.000093
48.119000 0.000093
48.128900 0.000093
48.138800 0.000093
48.148700 0.000093
48.158600 0.000093
48.168500 0.000093
48.178400 0.000093
48.188300 0.000093
48.198200 0.000093
48.208100 0.000093
48.218000 0.000093
48.227900 0.000093
48.237800 0.000093
48.247700 0.000093
48.257600 0.000093
48.267500 0.000093
48.277400 0.000093
48.287300 0.000093
48.297200 0.000093
48.307100 0.000093
48.317000 0.000093
48.326900 0.000093
48.336800 0.000093
48.346700 0.000092
48.356600 0.000092
48.366500 0.000092
48.376400 0.000092
48.386300 0.000092
48.396200 0.000092
48.406100 0.000092
48.416000 0.000092
48.425900 0.000092
48.435800 0.000092
48.445700 0.000092
48.455600 0.000092
48.465500 0.000092
48.475400 0.000092
48.485300 0.000092
48.495200 0.000092
48.505100 0.000092
48.515000 0.000092
48.524900 0.000092
48.534800 0.000092
48.544700 0.000092
48.554600 0.000092
48.564500 0.000092
48.574400 0.000092
48.584300 0.000092
48.594200 0.000092
48.604100 0.000091
48.614000 0.000091
48.623900 0.000091
48.633800 0.000091
48.643700 0.000091
48.653600 0.000091
48.663500 0.000091
48.673400 0.000091
48.683300 0.000091
48.693200 0.000091
48.703100 0.000091
48.713000 0.000091
48.722900 0.000091
48.732800 0.000091
48.742700 0.000091
48.752600 0.000091
48.762500 0.000091
48.772400 0.000091
48.782300 0.000091
48.792200 0.000091
48.802100 0.000091
48.812000 0.000091
48.821900 0.000091
48.831800 0.000091
48.841700 0.000091
48.851600 0.000091
48.861500 0.000090
48.871400 0.000090
48.881300 0.000090
48.891200 0.000090
48.901100 0.000090
48.911000 0.000090
48.920900 0.000090
48.930800 0.000090
48.940700 0.000090
48.950600 0.000090
48.960500 0.000090
48.970400 0.000090
48.980300 0.000090
48.990200 0.000090
49.000100 0.000090
49.010000 0.000090
49.019900 0.000090
49.029800 0.000090
49.039700 0.000090
49.049600 0.000090
49.059500 0.000090
49.069400 0.000090
49.079300 0.000090
49.089200 0.000090
49.099100 0.000090
49.109000 0.000090
49.118900 0.000089
49.128800 0.000089
49.138700 0.000089
49.148600 0.000089
49.158500 0.000089
49.168400 0.000089
49.178300 0.000089
49.188200 0.000089
49.198100 0.000089
49.208000 0.000089
49.217900 0.000089
49.227800 0.000089
49.237700 0.000089
49.247600 0.000089
49.257500 0.000089
49.267400 0.000089
49.277300 0.000089
49.287200 0.000089
49.297100 0.000089
49.307000 0.000089
49.316900 0.000089
49.326800 0.000089
49.336700 0.000089
49.346600 0.000089
49.356500 0.000089
49.366400 0.000089
49.376300 0.000089
49.386200 0.000088
49.396100 0.000088
49.406000 0.000088
49.415900 0.000088
49.425800 0.000088
49.435700 0.000088
49.445600 0.000088
49.455500 0.000088
49.465400 0.000088
49.475300 0.000088
49.485200 0.000088
49.495100 0.000088
49.505000 0.000088
49.514900 0.000088
49.524800 0.000088
49.534700 0.000088
49.544600 0.000088
49.554500 0.000088
49.564400 0.000088
49.574300 0.000088
49.584200 0.000088
49.594100 0.000088
49.604000 0.000088
49.613900 0.000088
49.623800 0.000088
49.633700 0.000088
49.643600 0.000088
49.653500 0.000087
49.663400 0.000087
49.673300 0.000087
49.683200 0.000087
49.693100 0.000087
49.703000 0.000087
49.712900 0.000087
49.722800 0.000087
49.732700 0.000087
49.742600 0.000087
49.752500 0.000087
49.762400 0.000087
49.772300 0.000087
49.782200 0.000087
49.792100 0.000087
49.802000 0.000087
49.811900 0.000087
49.821800 0.000087
49.831700 0.000087
49.841600 0.000087
49.851500 0.000087
49.861400 0.000087
49.871300 0.000087
49.881200 0.000087
49.891100 0.000087
49.901000 0.000087
49.910900 0.000087
49.920800 0.000087
49.930700 0.000086
49.940600 0.000086
49.950500 0.000086
49.960400 0.000086
49.970300 0.000086
49.980200 0.000086
49.990100 0.000086
50.000000 0.000086
